Cell ID	User	Profile
1.3	Ben Smith	IncStab

Sample Area	Irradiance	Pre Sweep Delay	Pre Sweep Bias (V)	Direction	Start (V)	End (V)	Interval (V)	#Points	Point Delay	Current Limit	Data Point Dwell
0.1	1	0.21	0	Stabilised-F	1.1	-0.1	0.015	1000	0	3	1

Voc (V)	Isc (A)	Jsc mA/cm≤)	Imax	Vmax	Pmax	Fill Factor	Efficiency	R at Voc	R at Isc	Power (w)	RefCell Temp	Total Test Time	Date & Time	SweepRate (V/s)	PreSoak Time (s)
False	N/A	N/A	1.69572	0.4894994	0.8300539	N/A	8.300538	N/A	N/A	N/A	1	170.11	27/10/2016 12:39:05	N/A	0.21

VSource (V)	Current Density (mA/cm≤)	IMeasure(mA)	Power(mW)	Time (s)
0.4895	21.1545	2.11545	1.035513	0.21
0.4895	19.65363	1.965363	0.9620452	0.35
0.4895	19.4841	1.94841	0.9537467	0.5
0.4895	19.38504	1.938504	0.9488977	0.66
0.4895	19.29133	1.929133	0.9443106	0.82
0.4895	19.20192	1.920192	0.939934	0.97
0.4895	19.13574	1.913574	0.9366944	1.13
0.4895	19.05253	1.905253	0.9326214	1.3
0.4895	19.03946	1.903946	0.9319816	1.46
0.4895	18.9939	1.89939	0.9297514	1.61
0.4895	18.9479	1.89479	0.9274997	1.77
0.4895	18.90332	1.890332	0.9253175	1.94
0.4895	18.86263	1.886263	0.9233257	2.1
0.4895	18.81767	1.881767	0.9211249	2.26
0.4895	18.79122	1.879122	0.9198302	2.43
0.4895	18.74752	1.874752	0.9176911	2.6
0.4895	18.67375	1.867375	0.91408	2.78
0.4895	18.62383	1.862383	0.9116365	2.95
0.4895	18.59571	1.859571	0.91026	3.12
0.4895	18.56159	1.856159	0.9085898	3.29
0.4895	18.53565	1.853565	0.90732	3.46
0.4895	18.51033	1.851033	0.9060806	3.62
0.4895	18.47372	1.847372	0.9042886	3.79
0.4895	18.45276	1.845276	0.9032626	3.95
0.4895	18.42507	1.842507	0.9019071	4.12
0.4895	18.39432	1.839432	0.9004019	4.29
0.4895	18.36481	1.836481	0.8989574	4.45
0.4895	18.33738	1.833738	0.8976147	4.62
0.4895	18.31136	1.831136	0.896341	4.78
0.4895	18.29117	1.829117	0.8953527	4.93
0.4895	18.25222	1.825222	0.8934461	5.1
0.4895	18.24	1.824	0.892848	5.26
0.4895	18.22276	1.822276	0.8920041	5.42
0.4895	18.19125	1.819125	0.8904617	5.58
0.4895	18.18	1.818	0.8899109	5.75
0.4895	18.13239	1.813239	0.8875805	5.91
0.4895	18.13004	1.813004	0.8874654	6.07
0.4895	18.1217	1.81217	0.8870572	6.22
0.4895	18.12414	1.812414	0.8871766	6.38
0.4895	18.09952	1.809952	0.8859715	6.54
0.4895	18.07459	1.807459	0.8847511	6.69
0.4895	18.05633	1.805633	0.8838573	6.84
0.4895	18.04738	1.804738	0.8834193	7
0.4895	18.04614	1.804614	0.8833585	7.16
0.4895	18.00625	1.800625	0.8814059	7.32
0.4895	17.99834	1.799834	0.8810187	7.47
0.4895	17.98255	1.798255	0.8802458	7.63
0.4895	17.95446	1.795446	0.8788708	7.78
0.4895	17.92777	1.792777	0.8775643	7.94
0.4895	17.90621	1.790621	0.876509	8.1
0.4895	17.88488	1.788488	0.8754649	8.25
0.4895	17.88384	1.788384	0.8754139	8.41
0.4895	17.85059	1.785059	0.8737863	8.56
0.4895	17.85784	1.785784	0.8741413	8.71
0.4895	17.85321	1.785321	0.8739146	8.87
0.4895	17.82664	1.782664	0.872614	9.04
0.4895	17.8237	1.78237	0.8724701	9.2
0.4895	17.80105	1.780105	0.8713614	9.35
0.4895	17.7917	1.77917	0.8709037	9.51
0.4895	17.77606	1.777606	0.8701381	9.67
0.4895	17.74868	1.774868	0.8687978	9.83
0.4895	17.73174	1.773174	0.8679687	9.99
0.4895	17.71863	1.771863	0.8673269	10.15
0.4895	17.70827	1.770827	0.8668198	10.3
0.4895	17.68253	1.768253	0.8655598	10.46
0.4895	17.68823	1.768823	0.8658388	10.63
0.4895	17.69762	1.769762	0.8662985	10.78
0.4895	17.67555	1.767555	0.8652182	10.93
0.4895	17.66528	1.766528	0.8647155	11.1
0.4895	17.63634	1.763634	0.8632988	11.26
0.4895	17.63114	1.763114	0.8630443	11.42
0.4895	17.61311	1.761311	0.8621618	11.58
0.4895	17.62186	1.762186	0.8625901	11.75
0.4895	17.62739	1.762739	0.8628607	11.91
0.4895	17.60742	1.760742	0.8618832	12.07
0.4895	17.5888	1.75888	0.8609717	12.24
0.4895	17.57606	1.757606	0.8603481	12.4
0.4895	17.55576	1.755576	0.8593544	12.56
0.4895	17.55382	1.755382	0.8592594	12.72
0.4895	17.5401	1.75401	0.8585879	12.88
0.4895	17.51961	1.751961	0.8575849	13.04
0.4895	17.53169	1.753169	0.8581762	13.21
0.4895	17.51755	1.751755	0.857484	13.37
0.4895	17.49458	1.749458	0.8563597	13.54
0.4895	17.50055	1.750055	0.8566519	13.7
0.4895	17.48106	1.748106	0.8556979	13.86
0.4895	17.44971	1.744971	0.8541633	14.03
0.4895	17.45036	1.745036	0.8541951	14.2
0.4895	17.42059	1.742059	0.8527378	14.35
0.4895	17.42004	1.742004	0.852711	14.51
0.4895	17.41875	1.741875	0.8526478	14.68
0.4895	17.40897	1.740897	0.8521691	14.84
0.4895	17.41553	1.741553	0.8524901	15
0.4895	17.41505	1.741505	0.8524667	15.17
0.4895	17.39654	1.739654	0.8515606	15.34
0.4895	17.37866	1.737866	0.8506854	15.5
0.4895	17.37355	1.737355	0.8504353	15.67
0.4895	17.3654	1.73654	0.8500363	15.83
0.4895	17.3667	1.73667	0.8500999	16
0.4895	17.35473	1.735473	0.849514	16.16
0.4895	17.34176	1.734176	0.8488792	16.34
0.4895	17.33231	1.733231	0.8484165	16.5
0.4895	17.32605	1.732605	0.8481101	16.68
0.4895	17.33265	1.733265	0.8484332	16.84
0.4895	17.32312	1.732312	0.8479667	17
0.4895	17.31283	1.731283	0.847463	17.17
0.4895	17.30319	1.730319	0.8469911	17.34
0.4895	17.2975	1.72975	0.8467126	17.5
0.4895	17.30196	1.730196	0.8469309	17.67
0.4895	17.28932	1.728932	0.8463122	17.83
0.4895	17.28452	1.728452	0.8460772	17.99
0.4895	17.26602	1.726602	0.8451716	18.16
0.4895	17.2664	1.72664	0.8451902	18.32
0.4895	17.25059	1.725059	0.8444164	18.49
0.4895	17.23997	1.723997	0.8438965	18.66
0.4895	17.24115	1.724115	0.8439543	18.83
0.4895	17.23635	1.723635	0.8437193	19
0.4895	17.22851	1.722851	0.8433356	19.16
0.4895	17.21382	1.721382	0.8426165	19.33
0.4895	17.20689	1.720689	0.8422773	19.5
0.4895	17.19616	1.719616	0.8417521	19.66
0.4895	17.18895	1.718895	0.8413991	19.82
0.4895	17.19202	1.719202	0.8415494	19.99
0.4895	17.18142	1.718142	0.8410305	20.16
0.4895	17.18553	1.718553	0.8412316	20.32
0.4895	17.17567	1.717567	0.840749	20.49
0.4895	17.17593	1.717593	0.8407617	20.66
0.4895	17.16061	1.716061	0.8400118	20.83
0.4895	17.13397	1.713397	0.8387078	21
0.4895	17.13157	1.713157	0.8385904	21.16
0.4895	17.12765	1.712765	0.8383985	21.32
0.4895	17.12595	1.712595	0.8383152	21.49
0.4895	17.11967	1.711967	0.8380078	21.64
0.4895	17.11106	1.711106	0.8375863	21.8
0.4895	17.09567	1.709567	0.836833	21.97
0.4895	17.10831	1.710831	0.8374518	22.14
0.4895	17.09698	1.709698	0.8368971	22.31
0.4895	17.10532	1.710532	0.8373054	22.47
0.4895	17.09934	1.709934	0.8370126	22.64
0.4895	17.08755	1.708755	0.8364356	22.81
0.4895	17.09632	1.709632	0.8368649	22.97
0.4895	17.07861	1.707861	0.8359979	23.14
0.4895	17.06392	1.706392	0.8352789	23.3
0.4895	17.06786	1.706786	0.8354717	23.46
0.4895	17.05896	1.705896	0.8350361	23.63
0.4895	17.06591	1.706591	0.8353763	23.8
0.4895	17.05388	1.705388	0.8347874	23.96
0.4895	17.05176	1.705176	0.8346836	24.12
0.4895	17.04051	1.704051	0.834133	24.29
0.4895	17.03643	1.703643	0.8339332	24.45
0.4895	17.03664	1.703664	0.8339435	24.61
0.4895	17.03292	1.703292	0.8337614	24.78
0.4895	17.01989	1.701989	0.8331236	24.95
0.4895	17.01488	1.701488	0.8328784	25.11
0.4895	17.01579	1.701579	0.8329229	25.28
0.4895	17.02376	1.702376	0.833313	25.45
0.4895	17.01199	1.701199	0.8327369	25.61
0.4895	17.03524	1.703524	0.833875	25.78
0.4895	17.02345	1.702345	0.8332978	25.94
0.4895	17.02679	1.702679	0.8334613	26.11
0.4895	17.03993	1.703993	0.8341045	26.27
0.4895	17.02147	1.702147	0.8332009	26.44
0.4895	17.0217	1.70217	0.8332122	26.61
0.4895	17.01616	1.701616	0.8329411	26.77
0.4895	16.99865	1.699865	0.8320839	26.94
0.4895	16.99974	1.699974	0.8321372	27.11
0.4895	17.00485	1.700485	0.8323874	27.29
0.4895	16.99461	1.699461	0.8318861	27.46
0.4895	17.0098	1.70098	0.8326297	27.63
0.4895	17.01257	1.701257	0.8327653	27.79
0.4895	16.99567	1.699567	0.831938	27.97
0.4895	16.99256	1.699256	0.8317857	28.13
0.4895	16.9924	1.69924	0.8317779	28.3
0.4895	16.98459	1.698459	0.8313957	28.46
0.4895	16.98407	1.698407	0.8313702	28.64
0.4895	16.96738	1.696738	0.8305532	28.81
0.4895	16.9729	1.69729	0.8308234	28.97
0.4895	16.96832	1.696832	0.8305992	29.15
0.4895	16.96251	1.696251	0.8303149	29.32
0.4895	16.96925	1.696925	0.8306448	29.48
0.4895	16.927	1.6927	0.8285766	29.66
0.4895	16.9258	1.69258	0.8285179	29.83
0.4895	16.90949	1.690949	0.8277195	30
0.4895	16.9418	1.69418	0.8293011	30.17
0.4895	16.95471	1.695471	0.829933	30.34
0.4895	16.94034	1.694034	0.8292296	30.5
0.4895	16.92373	1.692373	0.8284166	30.67
0.4895	16.93079	1.693079	0.8287622	30.84
0.4895	16.93084	1.693084	0.8287646	31.01
0.4895	16.91108	1.691108	0.8277974	31.18
0.4895	16.91735	1.691735	0.8281043	31.35
0.4895	16.93016	1.693016	0.8287314	31.52
0.4895	16.92407	1.692407	0.8284332	31.68
0.4895	16.91319	1.691319	0.8279006	31.85
0.4895	16.90689	1.690689	0.8275923	32.02
0.4895	16.90528	1.690528	0.8275135	32.18
0.4895	16.88666	1.688666	0.826602	32.35
0.4895	16.87497	1.687497	0.8260298	32.51
0.4895	16.88634	1.688634	0.8265864	32.68
0.4895	16.88205	1.688205	0.8263763	32.84
0.4895	16.88526	1.688526	0.8265335	33.01
0.4895	16.88608	1.688608	0.8265736	33.16
0.4895	16.87821	1.687821	0.8261884	33.32
0.4895	16.8754	1.68754	0.8260508	33.48
0.4895	16.88846	1.688846	0.8266901	33.65
0.4895	16.86794	1.686794	0.8256857	33.81
0.4895	16.867	1.6867	0.8256396	33.98
0.4895	16.85903	1.685903	0.8252495	34.16
0.4895	16.86547	1.686547	0.8255647	34.32
0.4895	16.8831	1.68831	0.8264278	34.49
0.4895	16.87545	1.687545	0.8260532	34.66
0.4895	16.88059	1.688059	0.8263049	34.84
0.4895	16.8806	1.68806	0.8263054	35
0.4895	16.88413	1.688413	0.8264781	35.17
0.4895	16.87246	1.687246	0.8259069	35.33
0.4895	16.87229	1.687229	0.8258986	35.5
0.4895	16.86281	1.686281	0.8254345	35.66
0.4895	16.9015	1.69015	0.8273284	35.83
0.4895	16.94601	1.694601	0.8295072	36
0.4895	16.93638	1.693638	0.8290358	36.17
0.4895	16.92853	1.692853	0.8286515	36.35
0.4895	16.90791	1.690791	0.8276422	36.53
0.4895	16.90481	1.690481	0.8274904	36.7
0.4895	16.91667	1.691667	0.8280709	36.87
0.4895	16.93378	1.693378	0.8289085	37.04
0.4895	16.94177	1.694177	0.8292996	37.2
0.4895	16.91916	1.691916	0.8281928	37.37
0.4895	16.90588	1.690588	0.8275428	37.54
0.4895	16.90684	1.690684	0.8275898	37.7
0.4895	16.90693	1.690693	0.8275942	37.86
0.4895	16.90926	1.690926	0.8277082	38.03
0.4895	16.90385	1.690385	0.8274434	38.2
0.4895	16.9055	1.69055	0.8275242	38.37
0.4895	16.90324	1.690324	0.8274136	38.54
0.4895	16.89409	1.689409	0.8269657	38.71
0.4895	16.86799	1.686799	0.8256881	38.88
0.4895	16.87108	1.687108	0.8258393	39.04
0.4895	16.85192	1.685192	0.8249015	39.2
0.4895	16.86186	1.686186	0.825388	39.37
0.4895	16.87045	1.687045	0.8258085	39.53
0.4895	16.85112	1.685112	0.8248623	39.69
0.4895	16.83154	1.683154	0.8239039	39.85
0.4895	16.8272	1.68272	0.8236914	40.02
0.4895	16.79278	1.679278	0.8220066	40.2
0.4895	16.83795	1.683795	0.8242176	40.37
0.4895	16.84904	1.684904	0.8247605	40.55
0.4895	16.84456	1.684456	0.8245412	40.72
0.4895	16.84528	1.684528	0.8245764	40.89
0.4895	16.82926	1.682926	0.8237923	41.05
0.4895	16.8351	1.68351	0.8240781	41.21
0.4895	16.84409	1.684409	0.8245182	41.38
0.4895	16.82248	1.682248	0.8234604	41.54
0.4895	16.81267	1.681267	0.8229802	41.71
0.4895	16.8157	1.68157	0.8231285	41.87
0.4895	16.81589	1.681589	0.8231378	42.03
0.4895	16.83101	1.683101	0.8238779	42.2
0.4895	16.83539	1.683539	0.8240923	42.36
0.4895	16.82639	1.682639	0.8236518	42.52
0.4895	16.80915	1.680915	0.8228078	42.68
0.4895	16.82459	1.682459	0.8235636	42.86
0.4895	16.81356	1.681356	0.8230237	43.02
0.4895	16.85643	1.685643	0.8251222	43.19
0.4895	16.86355	1.686355	0.8254707	43.36
0.4895	16.8719	1.68719	0.8258795	43.53
0.4895	16.85261	1.685261	0.8249353	43.7
0.4895	16.8443	1.68443	0.8245285	43.85
0.4895	16.86083	1.686083	0.8253376	44.02
0.4895	16.86023	1.686023	0.8253083	44.18
0.4895	16.8577	1.68577	0.8251844	44.35
0.4895	16.85366	1.685366	0.8249866	44.51
0.4895	16.85829	1.685829	0.8252133	44.68
0.4895	16.84801	1.684801	0.8247101	44.84
0.4895	16.85595	1.685595	0.8250988	45.01
0.4895	16.85842	1.685842	0.8252196	45.18
0.4895	16.8477	1.68477	0.8246949	45.34
0.4895	16.85018	1.685018	0.8248163	45.5
0.4895	16.84888	1.684888	0.8247526	45.67
0.4895	16.86058	1.686058	0.8253254	45.83
0.4895	16.85968	1.685968	0.8252813	46
0.4895	16.84175	1.684175	0.8244036	46.16
0.4895	16.81093	1.681093	0.822895	46.33
0.4895	16.83783	1.683783	0.8242118	46.5
0.4895	16.83619	1.683619	0.8241315	46.66
0.4895	16.82461	1.682461	0.8235646	46.83
0.4895	16.83268	1.683268	0.8239596	47
0.4895	16.83838	1.683838	0.8242387	47.17
0.4895	16.83076	1.683076	0.8238657	47.33
0.4895	16.83502	1.683502	0.8240742	47.5
0.4895	16.85468	1.685468	0.8250365	47.66
0.4895	16.8554	1.68554	0.8250718	47.83
0.4895	16.84812	1.684812	0.8247154	47.99
0.4895	16.83263	1.683263	0.8239572	48.16
0.4895	16.8273	1.68273	0.8236963	48.32
0.4895	16.8184	1.68184	0.8232606	48.49
0.4895	16.80454	1.680454	0.8225822	48.65
0.4895	16.79686	1.679686	0.8222063	48.82
0.4895	16.8122	1.68122	0.8229572	49
0.4895	16.80526	1.680526	0.8226175	49.16
0.4895	16.80529	1.680529	0.8226189	49.33
0.4895	16.79666	1.679666	0.8221965	49.49
0.4895	16.79662	1.679662	0.8221945	49.66
0.4895	16.79326	1.679326	0.8220301	49.83
0.4895	16.78905	1.678905	0.821824	49.99
0.4895	16.78918	1.678918	0.8218303	50.16
0.4895	16.80107	1.680107	0.8224124	50.32
0.4895	16.79541	1.679541	0.8221353	50.48
0.4895	16.80201	1.680201	0.8224584	50.65
0.4895	16.80039	1.680039	0.8223791	50.82
0.4895	16.80412	1.680412	0.8225617	50.98
0.4895	16.79454	1.679454	0.8220927	51.15
0.4895	16.81459	1.681459	0.8230742	51.31
0.4895	16.80857	1.680857	0.8227795	51.48
0.4895	16.79687	1.679687	0.8222068	51.64
0.4895	16.79218	1.679218	0.8219772	51.81
0.4895	16.79025	1.679025	0.8218827	51.98
0.4895	16.799	1.6799	0.822311	52.15
0.4895	16.79931	1.679931	0.8223262	52.31
0.4895	16.81493	1.681493	0.8230909	52.48
0.4895	16.80943	1.680943	0.8228216	52.64
0.4895	16.79695	1.679695	0.8222107	52.82
0.4895	16.78967	1.678967	0.8218543	52.99
0.4895	16.80629	1.680629	0.8226679	53.16
0.4895	16.80891	1.680891	0.8227962	53.32
0.4895	16.80088	1.680088	0.8224031	53.49
0.4895	16.78044	1.678044	0.8214025	53.66
0.4895	16.77383	1.677383	0.821079	53.84
0.4895	16.77713	1.677713	0.8212405	54.01
0.4895	16.77527	1.677527	0.8211494	54.18
0.4895	16.78871	1.678871	0.8218073	54.34
0.4895	16.78127	1.678127	0.8214431	54.51
0.4895	16.75557	1.675557	0.8201851	54.68
0.4895	16.75881	1.675881	0.8203437	54.84
0.4895	16.7615	1.67615	0.8204754	55.01
0.4895	16.76491	1.676491	0.8206424	55.19
0.4895	16.76433	1.676433	0.8206139	55.36
0.4895	16.76935	1.676935	0.8208596	55.52
0.4895	16.75686	1.675686	0.8202482	55.69
0.4895	16.74282	1.674282	0.819561	55.86
0.4895	16.74516	1.674516	0.8196756	56.02
0.4895	16.75872	1.675872	0.8203393	56.18
0.4895	16.75672	1.675672	0.8202415	56.36
0.4895	16.77044	1.677044	0.820913	56.53
0.4895	16.75203	1.675203	0.8200119	56.7
0.4895	16.76479	1.676479	0.8206365	56.87
0.4895	16.76051	1.676051	0.8204269	57.04
0.4895	16.76785	1.676785	0.8207862	57.2
0.4895	16.76969	1.676969	0.8208763	57.38
0.4895	16.76132	1.676132	0.8204666	57.55
0.4895	16.77008	1.677008	0.8208954	57.71
0.4895	16.77236	1.677236	0.821007	57.88
0.4895	16.76235	1.676235	0.820517	58.04
0.4895	16.78758	1.678758	0.821752	58.21
0.4895	16.77711	1.677711	0.8212395	58.38
0.4895	16.78138	1.678138	0.8214486	58.54
0.4895	16.78736	1.678736	0.8217412	58.71
0.4895	16.78103	1.678103	0.8214314	58.88
0.4895	16.77869	1.677869	0.8213168	59.04
0.4895	16.78849	1.678849	0.8217965	59.21
0.4895	16.79412	1.679412	0.8220721	59.38
0.4895	16.78893	1.678893	0.8218181	59.55
0.4895	16.78767	1.678767	0.8217564	59.71
0.4895	16.78373	1.678373	0.8215635	59.88
0.4895	16.7966	1.67966	0.8221935	60.05
0.4895	16.9491	1.69491	0.8296584	60.22
0.4895	16.93267	1.693267	0.8288541	60.38
0.4895	16.91478	1.691478	0.8279785	60.55
0.4895	16.89145	1.689145	0.8268365	60.73
0.4895	16.87714	1.687714	0.826136	60.91
0.4895	16.86201	1.686201	0.8253953	61.07
0.4895	16.84468	1.684468	0.8245471	61.24
0.4895	16.83884	1.683884	0.8242612	61.41
0.4895	16.84678	1.684678	0.8246498	61.58
0.4895	16.81135	1.681135	0.8229156	61.75
0.4895	16.82143	1.682143	0.823409	61.91
0.4895	16.82379	1.682379	0.8235245	62.09
0.4895	16.8166	1.68166	0.8231726	62.26
0.4895	16.81473	1.681473	0.823081	62.43
0.4895	16.81895	1.681895	0.8232876	62.6
0.4895	16.84273	1.684273	0.8244516	62.78
0.4895	16.84479	1.684479	0.8245524	62.95
0.4895	16.84491	1.684491	0.8245583	63.11
0.4895	16.82464	1.682464	0.8235661	63.28
0.4895	16.80083	1.680083	0.8224006	63.45
0.4895	16.79721	1.679721	0.8222234	63.61
0.4895	16.83417	1.683417	0.8240326	63.78
0.4895	16.8361	1.68361	0.8241271	63.95
0.4895	16.83776	1.683776	0.8242083	64.13
0.4895	16.83263	1.683263	0.8239572	64.29
0.4895	16.79959	1.679959	0.82234	64.46
0.4895	16.81174	1.681174	0.8229347	64.63
0.4895	16.81095	1.681095	0.822896	64.79
0.4895	16.8141	1.68141	0.8230501	64.97
0.4895	16.80059	1.680059	0.8223888	65.14
0.4895	16.79899	1.679899	0.8223105	65.31
0.4895	16.79632	1.679632	0.8221798	65.48
0.4895	16.7946	1.67946	0.8220957	65.65
0.4895	16.7942	1.67942	0.8220761	65.81
0.4895	16.80551	1.680551	0.8226297	65.98
0.4895	16.803	1.6803	0.8225068	66.14
0.4895	16.81729	1.681729	0.8232063	66.32
0.4895	16.80552	1.680552	0.8226302	66.49
0.4895	16.80585	1.680585	0.8226463	66.66
0.4895	16.81489	1.681489	0.8230888	66.83
0.4895	16.80212	1.680212	0.8224638	67
0.4895	16.80924	1.680924	0.8228123	67.17
0.4895	16.80505	1.680505	0.8226072	67.34
0.4895	16.81328	1.681328	0.8230101	67.5
0.4895	16.81959	1.681959	0.8233189	67.67
0.4895	16.80313	1.680313	0.8225132	67.84
0.4895	16.81715	1.681715	0.8231995	68.02
0.4895	16.82972	1.682972	0.8238147	68.19
0.4895	16.82422	1.682422	0.8235456	68.36
0.4895	16.83307	1.683307	0.8239788	68.54
0.4895	16.82546	1.682546	0.8236063	68.71
0.4895	16.79342	1.679342	0.8220379	68.88
0.4895	16.81129	1.681129	0.8229126	69.04
0.4895	16.81812	1.681812	0.823247	69.21
0.4895	16.80883	1.680883	0.8227922	69.38
0.4895	16.80568	1.680568	0.822638	69.56
0.4895	16.80576	1.680576	0.8226419	69.73
0.4895	16.80384	1.680384	0.822548	69.89
0.4895	16.81257	1.681257	0.8229753	70.07
0.4895	16.82762	1.682762	0.823712	70.25
0.4895	16.81249	1.681249	0.8229713	70.43
0.4895	16.81527	1.681527	0.8231075	70.6
0.4895	16.80793	1.680793	0.8227482	70.77
0.4895	16.79256	1.679256	0.8219958	70.94
0.4895	16.79403	1.679403	0.8220677	71.12
0.4895	16.78915	1.678915	0.8218289	71.28
0.4895	16.78939	1.678939	0.8218406	71.45
0.4895	16.78738	1.678738	0.8217422	71.63
0.4895	16.7873	1.67873	0.8217383	71.79
0.4895	16.7954	1.67954	0.8221349	71.96
0.4895	16.78954	1.678954	0.821848	72.12
0.4895	16.78789	1.678789	0.8217672	72.29
0.4895	16.78239	1.678239	0.821498	72.46
0.4895	16.77591	1.677591	0.8211808	72.64
0.4895	16.77945	1.677945	0.8213541	72.8
0.4895	16.77702	1.677702	0.8212351	72.97
0.4895	16.79147	1.679147	0.8219424	73.14
0.4895	16.97163	1.697163	0.8307613	73.31
0.4895	17.00264	1.700264	0.8322792	73.49
0.4895	16.96477	1.696477	0.8304255	73.66
0.4895	16.93779	1.693779	0.8291048	73.83
0.4895	16.92708	1.692708	0.8285806	74
0.4895	16.91223	1.691223	0.8278536	74.18
0.4895	16.89088	1.689088	0.8268086	74.34
0.4895	16.87547	1.687547	0.8260542	74.51
0.4895	16.88714	1.688714	0.8266255	74.68
0.4895	16.9002	1.69002	0.8272647	74.86
0.4895	16.89477	1.689477	0.8269989	75.04
0.4895	16.90464	1.690464	0.8274821	75.21
0.4895	16.88351	1.688351	0.8264478	75.39
0.4895	16.8885	1.68885	0.826692	75.56
0.4895	16.88067	1.688067	0.8263087	75.74
0.4895	16.88191	1.688191	0.8263695	75.91
0.4895	16.87735	1.687735	0.8261462	76.08
0.4895	16.88934	1.688934	0.8267332	76.25
0.4895	16.89848	1.689848	0.8271806	76.43
0.4895	16.88461	1.688461	0.8265016	76.59
0.4895	16.88705	1.688705	0.8266211	76.76
0.4895	16.88847	1.688847	0.8266906	76.94
0.4895	16.87488	1.687488	0.8260253	77.12
0.4895	16.87737	1.687737	0.8261473	77.29
0.4895	16.86546	1.686546	0.8255642	77.46
0.4895	16.86875	1.686875	0.8257253	77.64
0.4895	16.87034	1.687034	0.8258031	77.81
0.4895	16.87399	1.687399	0.8259818	77.99
0.4895	16.87746	1.687746	0.8261517	78.16
0.4895	16.86054	1.686054	0.8253234	78.34
0.4895	16.86176	1.686176	0.8253831	78.51
0.4895	16.8757	1.68757	0.8260655	78.68
0.4895	16.87889	1.687889	0.8262216	78.86
0.4895	16.86886	1.686886	0.8257306	79.04
0.4895	16.86279	1.686279	0.8254336	79.2
0.4895	16.86525	1.686525	0.825554	79.38
0.4895	16.87232	1.687232	0.8259001	79.55
0.4895	16.89672	1.689672	0.8270944	79.73
0.4895	16.90618	1.690618	0.8275575	79.91
0.4895	16.90579	1.690579	0.8275384	80.09
0.4895	16.88171	1.688171	0.8263597	80.26
