SpectraSuite Data File
++++++++++++++++++++++++++++++++++++
Date: Thu Jun 15 11:44:50 BST 2017
User: Eng0000912
Dark Spectrum Present: Yes
Reference Spectrum Present: No
Number of Sampled Component Spectra: 1
Spectrometers: USB2+H04851
Integration Time (usec): 100000 (USB2+H04851)
Spectra Averaged: 20 (USB2+H04851)
Boxcar Smoothing: 0 (USB2+H04851)
Correct for Electrical Dark: No (USB2+H04851)
Strobe/Lamp Enabled: No (USB2+H04851)
Correct for Detector Non-linearity: No (USB2+H04851)
Correct for Stray Light: No (USB2+H04851)
Number of Pixels in Processed Spectrum: 2048
>>>>>Begin Processed Spectral Data<<<<<
340.07	-13.45
340.45	-13.45
340.82	-13.45
341.20	-29.38
341.58	-19.43
341.96	-30.96
342.34	-42.15
342.72	-10.17
343.10	-37.29
343.48	-37.17
343.85	-47.12
344.23	-26.78
344.61	-4.07
344.99	-10.28
345.37	-10.17
345.75	-34.69
346.13	-30.39
346.50	-21.81
346.88	-20.00
347.26	-30.17
347.64	-32.32
348.02	-32.88
348.40	-25.42
348.77	-21.24
349.15	-12.32
349.53	-36.04
349.91	-26.78
350.29	-9.27
350.66	-25.31
351.04	-27.91
351.42	-23.50
351.80	-35.82
352.18	-16.16
352.55	-12.20
352.93	-11.75
353.31	-20.68
353.69	-22.60
354.07	-23.28
354.44	-20.11
354.82	-27.34
355.20	-25.65
355.58	-11.75
355.95	-11.75
356.33	-18.87
356.71	-25.54
357.09	-41.02
357.46	-34.35
357.84	-21.47
358.22	-26.44
358.60	-27.34
358.97	-11.53
359.35	-13.90
359.73	-2.71
360.10	-15.25
360.48	-17.51
360.86	-31.86
361.24	-37.85
361.61	1.36
361.99	-28.02
362.37	-24.07
362.74	-20.11
363.12	-27.46
363.50	-38.76
363.87	-20.90
364.25	-16.50
364.63	-38.30
365.01	-21.13
365.38	-34.58
365.76	-28.02
366.14	-28.93
366.51	-21.58
366.89	-14.58
367.27	-33.45
367.64	-12.99
368.02	-36.72
368.39	-34.80
368.77	-28.93
369.15	-32.99
369.52	-11.98
369.90	-20.56
370.28	-21.02
370.65	-2.94
371.03	-21.02
371.40	-40.00
371.78	-28.70
372.16	-40.56
372.53	-4.75
372.91	-17.51
373.28	-14.58
373.66	-25.42
374.04	-23.95
374.41	-12.09
374.79	-30.17
375.16	-22.71
375.54	-16.04
375.92	-29.49
376.29	-25.08
376.67	-12.20
377.04	-21.36
377.42	-29.60
377.79	-16.04
378.17	-20.79
378.55	-18.30
378.92	-14.46
379.30	-26.44
379.67	-35.03
380.05	-3.95
380.42	-9.27
380.80	-20.79
381.17	-19.21
381.55	-16.72
381.92	-24.86
382.30	-34.46
382.67	-35.93
383.05	-21.58
383.42	-44.63
383.80	-26.44
384.17	-9.72
384.55	-31.07
384.92	-29.72
385.30	-33.45
385.67	-28.81
386.05	-11.19
386.42	-18.64
386.80	-20.79
387.17	-24.18
387.55	-29.94
387.92	-9.38
388.30	-23.16
388.67	-24.86
389.04	-26.78
389.42	-23.28
389.79	-23.39
390.17	-12.66
390.54	-14.91
390.92	-33.67
391.29	-33.78
391.67	-0.23
392.04	-27.80
392.41	-8.47
392.79	-32.99
393.16	-29.26
393.54	-25.65
393.91	-33.45
394.28	-3.50
394.66	-27.91
395.03	-30.06
395.41	-25.08
395.78	-15.48
396.15	-15.93
396.53	-32.65
396.90	-42.37
397.28	-24.41
397.65	-26.10
398.02	-12.99
398.40	-19.77
398.77	-14.01
399.14	-3.84
399.52	-33.67
399.89	-29.38
400.26	-30.39
400.64	-28.25
401.01	-22.26
401.38	-18.08
401.76	-23.62
402.13	-8.59
402.50	0.23
402.88	-30.39
403.25	-11.64
403.62	-21.58
404.00	-19.21
404.37	-27.00
404.74	-37.85
405.12	-31.75
405.49	-26.21
405.86	-11.41
406.23	-20.79
406.61	-16.72
406.98	-19.43
407.35	-31.64
407.73	-28.13
408.10	-11.07
408.47	-17.85
408.84	-21.58
409.22	-21.47
409.59	-11.75
409.96	-28.25
410.33	-30.17
410.71	-17.85
411.08	-26.21
411.45	-18.08
411.82	-29.83
412.20	-23.16
412.57	-19.10
412.94	-29.60
413.31	-35.82
413.68	-23.62
414.06	-29.26
414.43	-34.35
414.80	-21.81
415.17	-5.08
415.55	-23.62
415.92	-25.08
416.29	-15.03
416.66	-23.73
417.03	-32.09
417.40	-17.97
417.78	-21.02
418.15	-18.08
418.52	-23.84
418.89	-14.01
419.26	-23.95
419.63	-30.06
420.01	-36.27
420.38	-18.64
420.75	-36.95
421.12	-37.74
421.49	-25.31
421.86	-4.07
422.23	-30.06
422.61	-22.94
422.98	-16.50
423.35	-26.10
423.72	-16.04
424.09	-26.89
424.46	-13.90
424.83	-48.47
425.20	-14.58
425.58	-15.93
425.95	-14.01
426.32	-19.10
426.69	-27.23
427.06	-16.04
427.43	-25.20
427.80	-21.13
428.17	-41.02
428.54	-14.46
428.91	-8.59
429.28	-25.20
429.65	-26.67
430.02	-21.92
430.40	-16.84
430.77	-28.70
431.14	-32.20
431.51	-9.15
431.88	-17.40
432.25	-30.17
432.62	-35.71
432.99	-27.68
433.36	-36.61
433.73	-21.47
434.10	-27.57
434.47	-18.87
434.84	-24.18
435.21	-10.17
435.58	-17.29
435.95	-23.39
436.32	-16.27
436.69	-33.56
437.06	-18.08
437.43	-19.21
437.80	-29.26
438.17	-29.04
438.54	-20.11
438.91	-6.55
439.28	-9.83
439.65	-23.50
440.02	-13.11
440.39	-23.62
440.76	-20.11
441.13	-15.71
441.49	-16.72
441.86	-15.71
442.23	-18.30
442.60	-25.88
442.97	-23.84
443.34	-27.91
443.71	-39.55
444.08	-50.62
444.45	-15.59
444.82	-34.12
445.19	-25.20
445.56	-25.54
445.93	-17.29
446.29	-28.47
446.66	-38.19
447.03	-28.93
447.40	-17.29
447.77	-13.78
448.14	-21.36
448.51	-15.82
448.88	-9.60
449.24	-5.99
449.61	-44.07
449.98	-14.46
450.35	-35.48
450.72	-18.42
451.09	-27.57
451.46	-15.82
451.82	-11.41
452.19	-28.02
452.56	-31.19
452.93	-3.95
453.30	-44.41
453.67	-23.28
454.03	-35.03
454.40	-44.74
454.77	-25.31
455.14	-23.28
455.51	-18.19
455.87	-20.23
456.24	7.34
456.61	-15.93
456.98	-31.64
457.35	-15.71
457.71	-24.18
458.08	-30.39
458.45	-15.14
458.82	-14.24
459.19	-30.51
459.55	-18.87
459.92	-26.78
460.29	-9.38
460.66	-25.99
461.02	-28.36
461.39	-15.82
461.76	-16.84
462.13	-24.97
462.49	-12.66
462.86	-19.89
463.23	-21.36
463.59	-24.29
463.96	-28.81
464.33	-3.28
464.70	-18.98
465.06	-7.01
465.43	-9.15
465.80	-16.95
466.16	-34.80
466.53	-28.81
466.90	-31.98
467.26	-34.24
467.63	-18.30
468.00	-23.16
468.36	-34.80
468.73	-12.54
469.10	-30.39
469.46	-16.04
469.83	-11.75
470.20	-26.89
470.56	-24.07
470.93	-20.00
471.30	-17.85
471.66	-33.45
472.03	-16.72
472.40	-21.69
472.76	-29.15
473.13	-30.39
473.50	-26.33
473.86	-18.30
474.23	-36.72
474.59	-17.97
474.96	-30.51
475.33	-19.55
475.69	-14.58
476.06	-28.70
476.42	-11.86
476.79	-15.71
477.16	-26.44
477.52	-28.13
477.89	-25.31
478.25	-15.25
478.62	-13.67
478.98	-14.91
479.35	-14.24
479.72	-30.39
480.08	-14.01
480.45	-17.97
480.81	-10.06
481.18	-18.64
481.54	-36.04
481.91	-14.80
482.27	-27.46
482.64	-31.86
483.00	-13.78
483.37	-37.74
483.73	-37.29
484.10	-16.61
484.46	-10.51
484.83	-6.67
485.19	-4.97
485.56	-22.82
485.92	-12.66
486.29	-12.66
486.65	-19.43
487.02	-23.95
487.38	-30.06
487.75	-16.95
488.11	-28.59
488.48	-35.93
488.84	-35.14
489.21	-13.45
489.57	-33.33
489.94	-19.10
490.30	-1.47
490.66	-16.38
491.03	-11.86
491.39	-11.86
491.76	-20.00
492.12	-32.09
492.49	-31.86
492.85	-0.11
493.21	-31.30
493.58	-14.58
493.94	-10.73
494.31	-22.03
494.67	-25.08
495.03	-11.07
495.40	-8.59
495.76	-17.74
496.13	-13.67
496.49	-22.26
496.85	-17.85
497.22	-9.04
497.58	-31.19
497.94	-9.38
498.31	3.73
498.67	-30.73
499.04	-14.46
499.40	-18.08
499.76	-13.78
500.13	-30.28
500.49	-0.79
500.85	-35.93
501.22	-14.80
501.58	-15.59
501.94	-2.49
502.31	-0.11
502.67	-4.86
503.03	-33.11
503.40	-6.89
503.76	-30.62
504.12	-19.10
504.48	-19.77
504.85	-17.51
505.21	-25.99
505.57	-34.91
505.94	-17.51
506.30	-9.72
506.66	-19.43
507.02	-12.32
507.39	-15.82
507.75	-27.12
508.11	-34.58
508.47	-17.97
508.84	-20.90
509.20	-21.81
509.56	-15.48
509.92	-21.81
510.29	-28.70
510.65	-31.86
511.01	-28.81
511.37	-33.67
511.74	-11.98
512.10	-20.11
512.46	-12.88
512.82	-23.62
513.18	-25.08
513.55	-12.20
513.91	-13.56
514.27	-19.21
514.63	-9.27
514.99	-18.98
515.35	-17.51
515.72	-18.76
516.08	-18.42
516.44	-20.11
516.80	-16.16
517.16	-17.06
517.52	-18.76
517.89	-20.56
518.25	-36.27
518.61	-35.03
518.97	-20.00
519.33	-29.26
519.69	2.60
520.05	-8.59
520.42	-41.13
520.78	-17.97
521.14	-28.13
521.50	-22.49
521.86	-29.26
522.22	-12.54
522.58	-17.17
522.94	-22.37
523.30	-8.70
523.67	-2.49
524.03	-23.05
524.39	-25.42
524.75	-34.35
525.11	-10.17
525.47	-20.45
525.83	-11.07
526.19	-16.16
526.55	4.86
526.91	-18.98
527.27	-1.81
527.63	-21.02
527.99	-15.03
528.35	-18.30
528.71	-30.85
529.07	-11.98
529.43	-12.77
529.79	-15.82
530.15	-20.34
530.51	-36.16
530.87	-15.71
531.23	4.97
531.59	-6.78
531.95	-18.08
532.31	-32.54
532.67	-20.68
533.03	-24.29
533.39	-16.84
533.75	-3.16
534.11	-50.62
534.47	-7.34
534.83	-23.16
535.19	-14.91
535.55	-15.59
535.91	-28.59
536.27	-17.85
536.63	-7.34
536.99	-19.55
537.35	-26.21
537.71	-2.15
538.07	-26.55
538.43	-19.89
538.79	-35.14
539.15	-17.85
539.51	-23.73
539.86	-11.41
540.22	-36.38
540.58	-26.21
540.94	-32.54
541.30	-22.37
541.66	-27.12
542.02	-11.41
542.38	-30.17
542.74	-26.21
543.09	-33.90
543.45	-8.93
543.81	-18.87
544.17	-19.89
544.53	-23.16
544.89	-7.01
545.25	-20.79
545.60	-23.50
545.96	-24.07
546.32	-24.29
546.68	-6.67
547.04	-18.76
547.40	-27.57
547.75	-9.15
548.11	-29.72
548.47	-18.42
548.83	-16.16
549.19	-8.14
549.55	-13.78
549.90	-3.28
550.26	-18.30
550.62	-27.23
550.98	-33.56
551.34	-4.18
551.69	-20.79
552.05	-30.62
552.41	-38.98
552.77	-30.28
553.12	-22.26
553.48	-13.56
553.84	-24.97
554.20	-21.02
554.55	-19.55
554.91	4.63
555.27	-38.98
555.63	-9.94
555.98	-20.11
556.34	-29.83
556.70	-18.30
557.05	-20.79
557.41	-27.34
557.77	-29.26
558.13	-27.80
558.48	-31.07
558.84	-44.07
559.20	7.80
559.55	-27.23
559.91	-30.28
560.27	-22.60
560.62	-30.62
560.98	-11.53
561.34	-17.85
561.69	-2.94
562.05	-25.54
562.41	-24.18
562.76	-20.68
563.12	-12.88
563.48	-16.84
563.83	-19.77
564.19	-23.50
564.55	-12.99
564.90	-10.85
565.26	-26.33
565.62	-13.45
565.97	-17.74
566.33	-5.42
566.68	-3.28
567.04	-14.12
567.40	-2.49
567.75	-26.89
568.11	-20.68
568.46	-23.73
568.82	2.15
569.18	-17.40
569.53	-9.38
569.89	-15.93
570.24	3.16
570.60	-12.20
570.95	12.32
571.31	4.18
571.66	13.45
572.02	9.27
572.38	24.29
572.73	52.88
573.09	16.72
573.44	59.09
573.80	32.65
574.15	20.11
574.51	20.00
574.86	38.76
575.22	59.21
575.57	30.28
575.93	34.35
576.28	37.63
576.64	22.60
576.99	47.68
577.35	35.48
577.70	30.85
578.06	13.45
578.41	30.51
578.77	11.30
579.12	-15.14
579.48	25.20
579.83	12.20
580.18	5.42
580.54	-1.24
580.89	6.78
581.25	-1.02
581.60	14.35
581.96	-20.45
582.31	-32.32
582.67	0.79
583.02	-1.02
583.37	-12.43
583.73	-33.33
584.08	-22.26
584.44	3.39
584.79	0.79
585.14	-8.25
585.50	-18.76
585.85	-43.39
586.21	-4.86
586.56	-11.98
586.91	-38.42
587.27	-23.39
587.62	-21.69
587.97	-31.86
588.33	-18.19
588.68	-18.87
589.03	-19.66
589.39	-21.36
589.74	-5.99
590.09	-16.27
590.45	-14.80
590.80	-10.85
591.15	-10.85
591.51	-23.39
591.86	-16.95
592.21	-25.31
592.57	-25.65
592.92	-1.36
593.27	-10.40
593.63	-21.58
593.98	-28.25
594.33	-31.19
594.69	-3.05
595.04	-10.17
595.39	-7.91
595.74	-10.28
596.10	-2.60
596.45	-10.06
596.80	-30.17
597.15	-8.93
597.51	-5.54
597.86	-19.21
598.21	-9.72
598.56	-5.31
598.92	-24.63
599.27	-16.16
599.62	-14.80
599.97	-15.71
600.32	-10.17
600.68	-15.59
601.03	-0.68
601.38	-15.03
601.73	13.22
602.09	-30.28
602.44	-17.74
602.79	-27.57
603.14	-11.30
603.49	-12.54
603.84	-21.92
604.20	-19.21
604.55	-13.90
604.90	-17.85
605.25	-12.99
605.60	-19.32
605.95	-23.62
606.31	-26.33
606.66	-11.64
607.01	-3.16
607.36	-19.77
607.71	-9.49
608.06	-25.08
608.41	-25.20
608.76	-18.87
609.12	-13.56
609.47	-14.24
609.82	-22.71
610.17	-14.69
610.52	-10.40
610.87	4.18
611.22	-30.17
611.57	-8.36
611.92	-14.69
612.27	-6.10
612.62	-16.16
612.98	-23.50
613.33	-31.19
613.68	-12.09
614.03	-6.55
614.38	-14.12
614.73	-23.50
615.08	-15.03
615.43	-11.53
615.78	-13.90
616.13	-25.42
616.48	-20.00
616.83	0.56
617.18	-42.94
617.53	-24.63
617.88	-21.92
618.23	-19.55
618.58	-14.12
618.93	-7.01
619.28	-17.40
619.63	-22.49
619.98	-24.29
620.33	-10.28
620.68	-14.58
621.03	-17.17
621.38	-5.76
621.73	-35.59
622.08	-16.38
622.43	-13.78
622.78	-15.82
623.13	-27.68
623.48	-15.03
623.82	-26.89
624.17	-19.43
624.52	-28.47
624.87	-17.85
625.22	-36.38
625.57	-12.66
625.92	-24.86
626.27	-12.43
626.62	-3.50
626.97	-14.80
627.32	-15.14
627.66	-20.11
628.01	-14.80
628.36	-21.69
628.71	-29.26
629.06	-5.31
629.41	-9.83
629.76	-17.63
630.11	-25.31
630.45	-28.59
630.80	-29.04
631.15	-1.69
631.50	-19.77
631.85	-26.67
632.20	-29.15
632.54	-25.20
632.89	-13.67
633.24	-12.54
633.59	-15.59
633.94	-21.13
634.29	-20.11
634.63	-11.30
634.98	-6.10
635.33	-28.93
635.68	-11.07
636.02	-7.34
636.37	-34.01
636.72	-12.77
637.07	-19.32
637.42	-22.82
637.76	-22.37
638.11	-13.11
638.46	-24.97
638.81	-3.39
639.15	-25.31
639.50	-29.72
639.85	7.34
640.20	-8.81
640.54	-13.33
640.89	-0.90
641.24	-5.65
641.58	-9.49
641.93	-14.46
642.28	-2.37
642.63	-22.15
642.97	-4.52
643.32	18.87
643.67	-26.10
644.01	-35.48
644.36	-28.47
644.71	-17.40
645.05	1.92
645.40	-20.56
645.75	-31.52
646.09	-7.46
646.44	-3.62
646.79	-17.06
647.13	-17.51
647.48	-8.70
647.83	1.02
648.17	-7.23
648.52	-6.78
648.86	-9.83
649.21	-25.42
649.56	-12.99
649.90	-4.75
650.25	-19.77
650.60	-0.68
650.94	-1.81
651.29	-4.86
651.63	5.99
651.98	3.50
652.33	-21.02
652.67	-21.24
653.02	-1.69
653.36	-4.75
653.71	-7.46
654.05	-11.07
654.40	2.82
654.74	-14.91
655.09	-11.53
655.44	1.92
655.78	-8.02
656.13	-0.90
656.47	-8.02
656.82	-13.67
657.16	-0.56
657.51	-11.07
657.85	3.16
658.20	-0.90
658.54	5.76
658.89	-11.86
659.23	-4.07
659.58	20.56
659.92	-5.54
660.27	-23.05
660.61	-17.40
660.96	6.44
661.30	11.98
661.65	-12.99
661.99	-21.58
662.33	5.65
662.68	1.13
663.02	10.62
663.37	20.23
663.71	4.63
664.06	17.29
664.40	3.84
664.75	11.19
665.09	1.92
665.43	13.67
665.78	5.54
666.12	15.48
666.47	13.67
666.81	17.74
667.15	32.88
667.50	12.32
667.84	17.85
668.19	10.62
668.53	19.55
668.87	27.68
669.22	27.91
669.56	23.84
669.90	19.89
670.25	31.64
670.59	35.25
670.93	29.60
671.28	26.21
671.62	50.06
671.96	30.39
672.31	55.37
672.65	40.22
672.99	64.07
673.34	34.80
673.68	35.25
674.02	47.00
674.37	58.87
674.71	57.17
675.05	53.78
675.40	55.93
675.74	56.61
676.08	51.07
676.42	84.29
676.77	68.25
677.11	76.38
677.45	71.41
677.79	77.74
678.14	65.08
678.48	101.13
678.82	95.48
679.16	83.16
679.51	92.09
679.85	91.18
680.19	104.97
680.53	87.34
680.88	118.53
681.22	96.49
681.56	105.19
681.90	101.24
682.24	99.77
682.59	101.69
682.93	132.99
683.27	128.47
683.61	115.70
683.95	103.84
684.29	105.76
684.64	125.99
684.98	144.29
685.32	141.69
685.66	160.45
686.00	168.24
686.34	146.66
686.69	169.94
687.03	171.29
687.37	173.55
687.71	178.75
688.05	173.10
688.39	183.39
688.73	197.85
689.07	190.16
689.41	205.64
689.76	201.92
690.10	197.28
690.44	219.09
690.78	216.83
691.12	218.30
691.46	223.50
691.80	242.48
692.14	239.32
692.48	268.58
692.82	251.86
693.16	280.22
693.50	285.53
693.84	278.41
694.18	301.80
694.53	303.04
694.87	334.34
695.21	337.62
695.55	318.18
695.89	342.14
696.23	371.97
696.57	356.71
696.91	366.88
697.25	374.57
697.59	383.27
697.93	398.29
698.27	400.55
698.61	418.41
698.95	438.86
699.29	417.84
699.63	436.03
699.97	446.65
700.30	462.59
700.64	490.04
700.98	495.47
701.32	507.90
701.66	512.42
702.00	547.22
702.34	534.22
702.68	566.31
703.02	612.19
703.36	598.52
703.70	633.32
704.04	626.99
704.38	663.26
704.72	666.31
705.05	687.89
705.39	707.67
705.73	731.17
706.07	742.13
706.41	751.51
706.75	759.42
707.09	792.41
707.43	797.27
707.77	807.66
708.10	851.39
708.44	881.11
708.78	901.90
709.12	904.61
709.46	949.92
709.80	954.44
710.13	993.53
710.47	997.26
710.81	1007.09
711.15	1053.42
711.49	1084.83
711.82	1119.29
712.16	1119.63
712.50	1148.11
712.84	1190.59
713.18	1218.05
713.51	1243.81
713.85	1281.21
714.19	1267.20
714.53	1326.74
714.87	1388.78
715.20	1377.36
715.54	1413.30
715.88	1452.28
716.22	1481.32
716.55	1526.40
716.89	1564.70
717.23	1594.20
717.57	1641.31
717.90	1689.33
718.24	1699.28
718.58	1731.82
718.91	1783.34
719.25	1847.30
719.59	1879.95
719.93	1889.67
720.26	1965.71
720.60	2006.16
720.94	2096.10
721.27	2105.82
721.61	2155.08
721.95	2201.75
722.28	2271.69
722.62	2315.19
722.96	2370.22
723.29	2405.70
723.63	2470.22
723.97	2533.49
724.30	2589.08
724.64	2654.62
724.97	2763.77
725.31	2807.61
725.65	2863.88
725.98	2938.91
726.32	2993.14
726.66	3087.83
726.99	3190.99
727.33	3258.11
727.66	3311.10
728.00	3392.45
728.33	3510.30
728.67	3612.67
729.01	3660.36
729.34	3752.56
729.68	3840.24
730.01	3897.19
730.35	4051.64
730.68	4135.82
731.02	4252.32
731.36	4331.86
731.69	4450.84
732.03	4523.72
732.36	4665.87
732.70	4773.66
733.03	4876.71
733.37	4964.62
733.70	5096.59
734.04	5196.59
734.37	5319.41
734.71	5462.12
735.04	5606.41
735.38	5691.49
735.71	5865.95
736.05	6008.43
736.38	6127.30
736.72	6178.26
737.05	6367.86
737.38	6479.60
737.72	6613.84
738.05	6730.67
738.39	6877.11
738.72	7000.95
739.06	7199.36
739.39	7321.62
739.73	7436.41
740.06	7590.99
740.39	7728.27
740.73	7958.55
741.06	8067.36
741.40	8181.71
741.73	8385.99
742.06	8513.22
742.40	8698.53
742.73	8799.54
743.07	9006.54
743.40	9263.49
743.73	9368.34
744.07	9506.42
744.40	9687.09
744.73	9848.22
745.07	10077.59
745.40	10187.98
745.73	10400.40
746.07	10584.24
746.40	10719.61
746.73	10889.09
747.07	11072.25
747.40	11288.06
747.73	11549.19
748.07	11668.39
748.40	11845.90
748.73	12016.18
749.07	12322.27
749.40	12458.43
749.73	12698.65
750.06	12764.75
750.40	12987.46
750.73	13253.21
751.06	13458.29
751.40	13674.56
751.73	13821.67
752.06	14121.21
752.39	14242.90
752.73	14527.41
753.06	14729.78
753.39	14941.53
753.72	15124.69
754.05	15262.76
754.39	15499.03
754.72	15695.52
755.05	16009.75
755.38	16100.93
755.72	16262.74
756.05	16462.17
756.38	16737.41
756.71	16914.81
757.04	17179.66
757.37	17302.71
757.71	17559.20
758.04	17713.77
758.37	17893.65
758.70	17976.36
759.03	18395.11
759.36	18451.38
759.70	18778.15
760.03	18884.70
760.36	19121.19
760.69	19375.20
761.02	19512.48
761.35	19685.25
761.68	19983.77
762.01	20041.39
762.35	20193.14
762.68	20344.66
763.01	20629.18
763.34	20810.64
763.67	20823.63
764.00	20947.13
764.33	21140.12
764.66	21124.08
764.99	21333.11
765.32	21407.12
765.65	21661.13
765.98	21905.98
766.31	21716.27
766.65	21802.59
766.98	21801.57
767.31	21928.35
767.64	22115.35
767.97	21914.23
768.30	21951.51
768.63	22128.91
768.96	21920.67
769.29	21999.87
769.62	21941.34
769.95	22026.88
770.28	21950.27
770.61	21841.35
770.94	22033.77
771.27	21986.54
771.60	21866.43
771.93	21823.16
772.26	21680.56
772.59	21655.93
772.92	21722.25
773.24	21635.70
773.57	21692.65
773.90	21359.10
774.23	21443.05
774.56	21317.74
774.89	21195.26
775.22	20920.47
775.55	20965.55
775.88	20674.94
776.21	20554.49
776.54	20330.65
776.87	20188.96
777.19	20000.60
777.52	20001.96
777.85	19617.45
778.18	19552.14
778.51	19252.49
778.84	19126.84
779.17	19054.19
779.50	18935.66
779.82	18534.20
780.15	18388.33
780.48	18113.42
780.81	17893.99
781.14	17811.40
781.47	17665.64
781.80	17318.87
782.12	17284.97
782.45	16905.09
782.78	16883.40
783.11	16586.46
783.44	16328.16
783.76	16179.12
784.09	15800.83
784.42	15721.73
784.75	15491.57
785.08	15307.85
785.40	15038.81
785.73	14887.97
786.06	14495.10
786.39	14423.46
786.71	14157.82
787.04	14035.45
787.37	13769.24
787.70	13490.15
788.02	13297.39
788.35	12992.77
788.68	12744.75
789.00	12608.37
789.33	12287.36
789.66	12112.22
789.99	11852.46
790.31	11613.03
790.64	11532.92
790.97	11224.79
791.29	11126.15
791.62	10827.40
791.95	10675.65
792.27	10482.78
792.60	10300.97
792.93	10084.25
793.25	9846.07
793.58	9736.92
793.91	9487.32
794.23	9306.08
794.56	9125.86
794.89	8895.36
795.21	8919.88
795.54	8622.94
795.87	8501.92
796.19	8262.72
796.52	8155.49
796.84	8015.95
797.17	7805.22
797.50	7667.48
797.82	7469.30
798.15	7359.58
798.47	7173.03
798.80	7037.89
799.12	6981.74
799.45	6744.00
799.78	6558.81
800.10	6406.50
800.43	6284.69
800.75	6091.93
801.08	5992.38
801.40	5837.36
801.73	5675.33
802.05	5542.79
802.38	5403.25
802.70	5298.39
803.03	5170.94
803.35	5027.55
803.68	4884.28
804.00	4777.16
804.33	4680.44
804.65	4573.67
804.98	4441.35
805.30	4268.14
805.63	4132.21
805.95	4053.23
806.28	3904.19
806.60	3741.60
806.93	3713.01
807.25	3571.77
807.58	3489.06
807.90	3390.87
808.22	3252.68
808.55	3239.12
808.87	3123.53
809.20	3002.18
809.52	2937.55
809.85	2849.30
810.17	2759.93
810.49	2661.17
810.82	2592.36
811.14	2503.44
811.47	2411.12
811.79	2348.53
812.11	2265.82
812.44	2216.66
812.76	2122.09
813.08	2068.65
813.41	1994.75
813.73	1940.17
814.05	1869.78
814.38	1802.33
814.70	1764.13
815.02	1676.57
815.35	1637.58
815.67	1599.17
815.99	1556.00
816.32	1487.31
816.64	1449.68
816.96	1425.50
817.29	1368.21
817.61	1324.37
817.93	1292.51
818.26	1250.48
818.58	1172.40
818.90	1155.00
819.22	1107.09
819.55	1088.78
819.87	1033.42
820.19	1028.79
820.51	977.04
820.84	943.14
821.16	918.05
821.48	888.56
821.80	869.36
822.13	849.36
