SpectraSuite Data File
++++++++++++++++++++++++++++++++++++
Date: Thu Jun 15 11:41:44 BST 2017
User: Eng0000912
Dark Spectrum Present: Yes
Reference Spectrum Present: No
Number of Sampled Component Spectra: 1
Spectrometers: USB2+H04851
Integration Time (usec): 100000 (USB2+H04851)
Spectra Averaged: 20 (USB2+H04851)
Boxcar Smoothing: 0 (USB2+H04851)
Correct for Electrical Dark: No (USB2+H04851)
Strobe/Lamp Enabled: No (USB2+H04851)
Correct for Detector Non-linearity: No (USB2+H04851)
Correct for Stray Light: No (USB2+H04851)
Number of Pixels in Processed Spectrum: 2048
>>>>>Begin Processed Spectral Data<<<<<
340.07	-15.03
340.45	-15.03
340.82	-15.03
341.20	-29.26
341.58	-29.38
341.96	-22.71
342.34	-29.15
342.72	-22.49
343.10	-37.97
343.48	-32.99
343.85	-45.08
344.23	-25.54
344.61	3.28
344.99	-4.97
345.37	-12.66
345.75	-30.06
346.13	-38.42
346.50	-24.18
346.88	-7.46
347.26	-33.45
347.64	-30.39
348.02	-34.01
348.40	-31.30
348.77	-22.71
349.15	-11.64
349.53	-30.96
349.91	-31.64
350.29	-15.71
350.66	-23.39
351.04	-19.55
351.42	-27.68
351.80	-29.15
352.18	-35.93
352.55	-16.38
352.93	-26.44
353.31	-6.10
353.69	-12.99
354.07	-24.07
354.44	-3.62
354.82	-37.40
355.20	-34.35
355.58	-11.64
355.95	-28.25
356.33	-23.16
356.71	-32.32
357.09	-45.20
357.46	-28.70
357.84	-28.93
358.22	-21.81
358.60	-38.19
358.97	-27.12
359.35	-22.94
359.73	-16.27
360.10	-15.14
360.48	-5.54
360.86	-34.12
361.24	-18.08
361.61	-2.49
361.99	-18.19
362.37	-35.48
362.74	-17.97
363.12	-21.92
363.50	-20.11
363.87	-27.91
364.25	-34.80
364.63	-44.97
365.01	-44.97
365.38	-30.39
365.76	-18.08
366.14	-22.71
366.51	-36.84
366.89	-19.10
367.27	-22.71
367.64	-6.67
368.02	-43.39
368.39	-24.07
368.77	-31.30
369.15	-30.28
369.52	-9.83
369.90	-37.74
370.28	-23.16
370.65	-16.27
371.03	-19.77
371.40	-42.71
371.78	-25.65
372.16	-34.12
372.53	-13.90
372.91	-12.77
373.28	-8.93
373.66	-26.55
374.04	-28.59
374.41	-28.47
374.79	-20.79
375.16	-23.28
375.54	-21.02
375.92	-25.31
376.29	-25.54
376.67	-14.46
377.04	-19.21
377.42	-11.53
377.79	-19.21
378.17	-26.78
378.55	-15.82
378.92	-14.80
379.30	-29.94
379.67	-43.84
380.05	-1.92
380.42	-8.25
380.80	-27.91
381.17	-36.27
381.55	-23.95
381.92	-24.07
382.30	-47.34
382.67	-28.25
383.05	-15.25
383.42	-29.94
383.80	-49.60
384.17	5.08
384.55	-21.81
384.92	-29.83
385.30	-16.84
385.67	-17.97
386.05	-18.64
386.42	-20.00
386.80	-36.38
387.17	-25.99
387.55	-38.42
387.92	-14.91
388.30	-25.20
388.67	-34.58
389.04	-19.43
389.42	-17.29
389.79	-25.08
390.17	-23.50
390.54	-29.04
390.92	-22.15
391.29	-26.55
391.67	-12.54
392.04	-12.09
392.41	-19.10
392.79	-38.64
393.16	-25.54
393.54	-16.61
393.91	-35.82
394.28	-19.89
394.66	-26.21
395.03	-17.51
395.41	-38.53
395.78	-22.82
396.15	-25.08
396.53	-31.86
396.90	-16.84
397.28	-30.06
397.65	-1.92
398.02	-8.14
398.40	-16.04
398.77	-31.41
399.14	-26.89
399.52	-38.08
399.89	-28.93
400.26	-37.85
400.64	-25.65
401.01	-21.47
401.38	-1.69
401.76	-21.02
402.13	-5.42
402.50	-2.60
402.88	-24.97
403.25	-21.13
403.62	-29.15
404.00	-24.86
404.37	-31.52
404.74	-38.64
405.12	-49.15
405.49	-25.20
405.86	-21.13
406.23	-33.67
406.61	-19.55
406.98	-36.95
407.35	-28.93
407.73	-39.21
408.10	6.55
408.47	-21.47
408.84	-11.07
409.22	-22.71
409.59	-19.32
409.96	-25.54
410.33	-23.73
410.71	-20.56
411.08	-24.07
411.45	-21.58
411.82	-12.66
412.20	-18.64
412.57	-15.37
412.94	-28.93
413.31	-40.11
413.68	-28.93
414.06	-20.00
414.43	-28.36
414.80	-41.13
415.17	-17.29
415.55	-25.08
415.92	-13.90
416.29	-13.90
416.66	-39.21
417.03	-34.35
417.40	-29.83
417.78	-24.29
418.15	-19.10
418.52	-5.88
418.89	-20.34
419.26	-14.01
419.63	-34.91
420.01	-20.00
420.38	-24.07
420.75	-8.14
421.12	-26.33
421.49	-25.42
421.86	-12.09
422.23	-16.50
422.61	-22.15
422.98	-31.30
423.35	-34.69
423.72	-10.85
424.09	-35.25
424.46	-12.43
424.83	-35.59
425.20	-25.31
425.58	-5.20
425.95	-21.47
426.32	-28.93
426.69	-19.43
427.06	-8.93
427.43	-27.12
427.80	-16.95
428.17	-18.64
428.54	-13.11
428.91	-7.23
429.28	-5.88
429.65	-30.17
430.02	-5.88
430.40	-19.43
430.77	-26.67
431.14	-36.84
431.51	-12.43
431.88	-9.27
432.25	-21.47
432.62	-16.16
432.99	-31.98
433.36	-19.10
433.73	-30.62
434.10	-26.33
434.47	-17.51
434.84	-33.56
435.21	-19.89
435.58	-7.68
435.95	-19.66
436.32	-13.78
436.69	-41.13
437.06	-16.50
437.43	-28.25
437.80	-23.05
438.17	-9.27
438.54	-12.66
438.91	4.63
439.28	-20.68
439.65	-30.28
440.02	-38.19
440.39	-19.21
440.76	-32.32
441.13	-10.85
441.49	-18.53
441.86	-24.75
442.23	-27.57
442.60	-34.69
442.97	-22.60
443.34	-15.93
443.71	-52.20
444.08	-34.01
444.45	-9.49
444.82	-19.21
445.19	-12.43
445.56	-44.29
445.93	-11.86
446.29	-20.68
446.66	-30.51
447.03	-34.12
447.40	-18.87
447.77	-17.40
448.14	-17.74
448.51	-26.10
448.88	-11.86
449.24	-13.56
449.61	-32.54
449.98	-16.16
450.35	-35.03
450.72	-27.68
451.09	-12.43
451.46	-14.35
451.82	-9.72
452.19	-25.42
452.56	-22.82
452.93	-9.15
453.30	-28.36
453.67	-14.12
454.03	-35.59
454.40	-28.25
454.77	-1.69
455.14	-37.29
455.51	-23.39
455.87	-32.20
456.24	-13.78
456.61	-32.43
456.98	-28.02
457.35	-19.77
457.71	-13.22
458.08	-29.15
458.45	-6.55
458.82	-23.16
459.19	-19.77
459.55	-17.06
459.92	-20.34
460.29	-17.74
460.66	-14.01
461.02	-24.41
461.39	-16.27
461.76	-30.06
462.13	-18.19
462.49	-1.81
462.86	-15.37
463.23	-23.28
463.59	-2.71
463.96	-20.56
464.33	-3.16
464.70	-11.53
465.06	-18.98
465.43	-21.36
465.80	-8.02
466.16	-25.76
466.53	-29.38
466.90	-12.99
467.26	-22.94
467.63	-22.82
468.00	-16.16
468.36	-27.34
468.73	-26.78
469.10	-13.67
469.46	-17.51
469.83	-17.17
470.20	-30.96
470.56	-31.52
470.93	-38.30
471.30	-30.62
471.66	-30.85
472.03	-18.08
472.40	-14.46
472.76	-24.63
473.13	-20.45
473.50	-34.01
473.86	-27.00
474.23	-37.29
474.59	-36.38
474.96	-42.82
475.33	-13.33
475.69	-16.84
476.06	-41.02
476.42	-9.60
476.79	-9.04
477.16	-27.23
477.52	-26.10
477.89	-27.23
478.25	-19.66
478.62	-17.63
478.98	-18.87
479.35	-7.01
479.72	-42.82
480.08	-21.13
480.45	-20.68
480.81	-27.00
481.18	-30.17
481.54	-47.57
481.91	-27.34
482.27	-25.54
482.64	-34.24
483.00	-20.79
483.37	-25.99
483.73	-22.60
484.10	-36.50
484.46	-29.04
484.83	-3.95
485.19	-32.99
485.56	-15.93
485.92	-14.69
486.29	-9.38
486.65	-14.01
487.02	-22.26
487.38	-20.45
487.75	-15.71
488.11	-10.06
488.48	-27.23
488.84	-22.26
489.21	-8.14
489.57	-30.51
489.94	-38.53
490.30	-16.72
490.66	-27.12
491.03	-19.21
491.39	-2.94
491.76	-30.96
492.12	-32.20
492.49	-27.12
492.85	-17.29
493.21	-21.47
493.58	-6.44
493.94	8.36
494.31	-8.81
494.67	-15.37
495.03	-12.43
495.40	-8.81
495.76	-30.96
496.13	-1.92
496.49	-28.81
496.85	-23.05
497.22	-23.28
497.58	-6.33
497.94	-12.66
498.31	-7.46
498.67	-30.96
499.04	-20.23
499.40	-24.86
499.76	-16.04
500.13	-28.02
500.49	-35.93
500.85	-27.12
501.22	-21.13
501.58	-20.68
501.94	-12.99
502.31	-10.06
502.67	-14.35
503.03	-18.42
503.40	-31.19
503.76	-23.62
504.12	-13.78
504.48	-10.17
504.85	-16.61
505.21	-34.91
505.57	-20.68
505.94	-22.60
506.30	-7.01
506.66	-21.69
507.02	-28.36
507.39	-19.10
507.75	-34.35
508.11	-27.57
508.47	-26.55
508.84	-21.92
509.20	-21.81
509.56	-24.97
509.92	-10.62
510.29	-19.55
510.65	-44.07
511.01	-32.99
511.37	-30.73
511.74	-25.20
512.10	-7.68
512.46	-16.38
512.82	-20.23
513.18	-30.39
513.55	-0.79
513.91	-14.35
514.27	-12.09
514.63	-12.32
514.99	-22.71
515.35	-19.55
515.72	-4.41
516.08	-33.33
516.44	-31.30
516.80	-25.42
517.16	-30.96
517.52	-28.02
517.89	-21.81
518.25	-34.12
518.61	-47.46
518.97	-17.06
519.33	-16.61
519.69	-13.90
520.05	-31.19
520.42	-43.05
520.78	-30.96
521.14	-31.52
521.50	-21.92
521.86	-30.28
522.22	-19.32
522.58	-4.75
522.94	-28.81
523.30	-20.45
523.67	-13.78
524.03	-26.78
524.39	-29.38
524.75	-40.00
525.11	-14.01
525.47	-5.31
525.83	-11.98
526.19	-23.28
526.55	2.37
526.91	-5.88
527.27	-13.67
527.63	-32.77
527.99	-23.16
528.35	-17.74
528.71	-23.16
529.07	-25.88
529.43	-7.46
529.79	-22.82
530.15	-2.03
530.51	-37.29
530.87	-23.73
531.23	-10.28
531.59	-14.58
531.95	-16.61
532.31	-35.14
532.67	-33.56
533.03	-33.22
533.39	-24.52
533.75	-11.64
534.11	-42.82
534.47	-13.33
534.83	-24.29
535.19	-2.94
535.55	-17.74
535.91	-29.94
536.27	-11.98
536.63	-34.01
536.99	-29.60
537.35	-27.57
537.71	-29.15
538.07	-26.33
538.43	-14.69
538.79	-32.77
539.15	-18.53
539.51	-28.93
539.86	-20.34
540.22	-40.00
540.58	-45.76
540.94	-5.99
541.30	-31.98
541.66	-25.65
542.02	-7.46
542.38	-17.40
542.74	-12.54
543.09	-17.17
543.45	-26.44
543.81	-29.15
544.17	-24.52
544.53	-13.67
544.89	-17.40
545.25	-8.02
545.60	-25.31
545.96	-47.23
546.32	-26.89
546.68	-10.40
547.04	-27.91
547.40	-23.05
547.75	-18.76
548.11	-27.46
548.47	-34.12
548.83	-29.04
549.19	-25.42
549.55	-26.10
549.90	-14.12
550.26	-26.89
550.62	-11.19
550.98	-22.37
551.34	-18.53
551.69	-24.97
552.05	-30.51
552.41	-29.72
552.77	-28.70
553.12	-27.23
553.48	-19.32
553.84	-17.17
554.20	-4.41
554.55	-25.65
554.91	-19.77
555.27	-33.90
555.63	-16.72
555.98	-8.70
556.34	-24.18
556.70	-19.21
557.05	-17.17
557.41	-19.89
557.77	-25.31
558.13	-18.64
558.48	-16.38
558.84	-21.36
559.20	-23.05
559.55	-7.34
559.91	-22.82
560.27	-28.02
560.62	-27.00
560.98	-32.20
561.34	-14.12
561.69	-9.94
562.05	-8.93
562.41	-19.77
562.76	-28.13
563.12	-1.92
563.48	-6.21
563.83	-31.98
564.19	-22.37
564.55	-26.10
564.90	-18.53
565.26	-33.33
565.62	-23.62
565.97	-26.89
566.33	-16.04
566.68	-25.54
567.04	-23.39
567.40	-19.66
567.75	-22.03
568.11	-16.38
568.46	-24.86
568.82	-15.03
569.18	-12.88
569.53	-19.66
569.89	-18.87
570.24	6.67
570.60	-11.19
570.95	3.95
571.31	3.50
571.66	4.52
572.02	16.38
572.38	23.05
572.73	28.25
573.09	23.95
573.44	70.62
573.80	35.03
574.15	27.12
574.51	32.43
574.86	44.29
575.22	41.24
575.57	34.35
575.93	23.39
576.28	27.91
576.64	20.00
576.99	52.65
577.35	15.93
577.70	27.12
578.06	23.05
578.41	24.41
578.77	17.40
579.12	7.34
579.48	20.00
579.83	10.73
580.18	-15.25
580.54	-3.84
580.89	22.26
581.25	5.31
581.60	6.33
581.96	-22.82
582.31	-18.19
582.67	-17.97
583.02	-5.99
583.37	-29.38
583.73	-11.53
584.08	-39.66
584.44	-22.26
584.79	-8.93
585.14	-16.72
585.50	-25.20
585.85	-34.12
586.21	-13.11
586.56	-0.56
586.91	-25.99
587.27	-21.02
587.62	-15.25
587.97	-21.24
588.33	-28.25
588.68	-15.14
589.03	-16.95
589.39	-16.72
589.74	-8.47
590.09	-17.74
590.45	-8.93
590.80	-6.89
591.15	-12.32
591.51	-30.39
591.86	-24.41
592.21	-12.77
592.57	-8.81
592.92	-17.85
593.27	-11.64
593.63	-24.07
593.98	-21.47
594.33	-30.85
594.69	-3.62
595.04	-8.02
595.39	-3.39
595.74	-3.95
596.10	-18.53
596.45	-18.98
596.80	-35.14
597.15	-30.96
597.51	-19.55
597.86	-9.49
598.21	-7.34
598.56	-12.43
598.92	-22.03
599.27	-13.11
599.62	1.24
599.97	-21.02
600.32	-3.39
600.68	-6.78
601.03	-8.14
601.38	-31.52
601.73	-1.92
602.09	-23.05
602.44	-11.19
602.79	-37.51
603.14	-7.01
603.49	-9.27
603.84	-9.15
604.20	-31.98
604.55	-12.09
604.90	-16.50
605.25	-14.35
605.60	-18.98
605.95	-32.77
606.31	-30.85
606.66	-16.27
607.01	-1.81
607.36	-24.97
607.71	-20.34
608.06	-14.35
608.41	-33.67
608.76	-23.95
609.12	-27.80
609.47	-18.08
609.82	-16.61
610.17	-8.14
610.52	-12.88
610.87	-17.63
611.22	-22.94
611.57	-10.06
611.92	3.16
612.27	-20.23
612.62	-26.78
612.98	-16.50
613.33	-23.95
613.68	6.44
614.03	-8.36
614.38	-13.45
614.73	-33.11
615.08	-10.96
615.43	-30.28
615.78	-28.47
616.13	-38.98
616.48	-5.54
616.83	-16.84
617.18	-42.26
617.53	-35.25
617.88	-31.75
618.23	-7.23
618.58	-10.28
618.93	-13.78
619.28	-24.29
619.63	-13.45
619.98	-22.71
620.33	-14.01
620.68	-16.84
621.03	-29.49
621.38	-15.14
621.73	-28.02
622.08	-1.81
622.43	-11.30
622.78	-11.07
623.13	-19.89
623.48	-5.76
623.82	-22.26
624.17	-15.93
624.52	-30.51
624.87	-23.39
625.22	-25.65
625.57	-20.11
625.92	-22.60
626.27	-28.36
626.62	-10.96
626.97	-11.07
627.32	-0.79
627.66	-25.08
628.01	-14.91
628.36	-15.37
628.71	-40.34
629.06	-14.01
629.41	-15.93
629.76	-17.51
630.11	-27.80
630.45	-17.06
630.80	-22.94
631.15	-12.20
631.50	-29.49
631.85	-41.35
632.20	-16.95
632.54	-16.38
632.89	-27.91
633.24	-6.67
633.59	-6.55
633.94	-2.03
634.29	-17.63
634.63	1.02
634.98	0.68
635.33	-35.14
635.68	-3.28
636.02	-14.24
636.37	-17.51
636.72	4.29
637.07	-18.19
637.42	-8.81
637.76	-17.29
638.11	-8.93
638.46	-27.91
638.81	-0.90
639.15	-29.83
639.50	-14.12
639.85	-14.35
640.20	-14.24
640.54	-26.21
640.89	-17.51
641.24	7.01
641.58	11.30
641.93	-11.86
642.28	-21.81
642.63	-14.12
642.97	-39.43
643.32	-19.55
643.67	-14.58
644.01	-34.35
644.36	-25.08
644.71	-26.55
645.05	-3.16
645.40	-9.49
645.75	-22.82
646.09	-22.15
646.44	-20.00
646.79	-10.62
647.13	-11.07
647.48	2.03
647.83	-3.16
648.17	-14.12
648.52	-14.69
648.86	-32.32
649.21	-26.10
649.56	-9.83
649.90	-9.38
650.25	-14.69
650.60	-9.83
650.94	-9.04
651.29	-18.76
651.63	-10.85
651.98	-16.72
652.33	-28.47
652.67	-26.21
653.02	-3.39
653.36	-20.11
653.71	0.45
654.05	-12.54
654.40	-15.48
654.74	-14.46
655.09	-12.88
655.44	8.02
655.78	-22.60
656.13	-14.80
656.47	-15.03
656.82	1.02
657.16	-3.28
657.51	-12.66
657.85	-20.90
658.20	-5.76
658.54	-9.72
658.89	-10.06
659.23	0.00
659.58	4.75
659.92	3.28
660.27	-23.73
660.61	-20.79
660.96	-13.67
661.30	-13.11
661.65	-7.57
661.99	-14.58
662.33	21.13
662.68	2.03
663.02	0.45
663.37	4.29
663.71	6.55
664.06	11.30
664.40	10.85
664.75	-2.71
665.09	-12.32
665.43	16.27
665.78	5.08
666.12	8.93
666.47	5.20
666.81	-5.99
667.15	6.10
667.50	13.45
667.84	10.85
668.19	9.72
668.53	20.00
668.87	8.25
669.22	24.41
669.56	16.72
669.90	25.20
670.25	25.31
670.59	31.75
670.93	9.60
671.28	27.91
671.62	30.39
671.96	15.25
672.31	42.82
672.65	29.49
672.99	35.14
673.34	32.43
673.68	14.91
674.02	40.00
674.37	53.56
674.71	40.68
675.05	38.42
675.40	28.47
675.74	32.09
676.08	32.77
676.42	64.52
676.77	51.19
677.11	44.74
677.45	59.32
677.79	80.11
678.14	54.57
678.48	85.42
678.82	69.26
679.16	62.15
679.51	62.37
679.85	69.83
680.19	91.18
680.53	66.78
680.88	98.64
681.22	90.17
681.56	85.65
681.90	70.96
682.24	82.14
682.59	85.87
682.93	103.50
683.27	109.38
683.61	110.73
683.95	89.60
684.29	106.21
684.64	107.34
684.98	117.17
685.32	113.78
685.66	117.62
686.00	131.18
686.34	101.69
686.69	122.60
687.03	132.99
687.37	125.87
687.71	136.83
688.05	154.35
688.39	140.67
688.73	156.83
689.07	139.21
689.41	162.26
689.76	164.29
690.10	155.82
690.44	175.93
690.78	192.09
691.12	175.02
691.46	180.45
691.80	198.86
692.14	208.02
692.48	208.02
692.82	202.59
693.16	193.44
693.50	233.10
693.84	230.73
694.18	238.64
694.53	241.35
694.87	251.29
695.21	266.32
695.55	262.82
695.89	270.28
696.23	301.12
696.57	286.32
696.91	302.70
697.25	309.60
697.59	323.95
697.93	328.58
698.27	319.65
698.61	331.40
698.95	355.47
699.29	358.52
699.63	356.15
699.97	357.39
700.30	391.63
700.64	406.54
700.98	414.68
701.32	418.18
701.66	427.11
702.00	437.16
702.34	450.50
702.68	457.84
703.02	501.68
703.36	513.43
703.70	516.03
704.04	528.80
704.38	546.99
704.72	559.87
705.05	569.82
705.39	584.28
705.73	583.37
706.07	610.94
706.41	619.31
706.75	630.49
707.09	653.32
707.43	669.93
707.77	675.69
708.10	695.46
708.44	725.40
708.78	726.99
709.12	743.60
709.46	768.68
709.80	801.67
710.13	818.85
710.47	840.77
710.81	838.96
711.15	859.41
711.49	887.55
711.82	934.33
712.16	952.18
712.50	948.22
712.84	991.95
713.18	975.57
713.51	1046.19
713.85	1057.15
714.19	1041.33
714.53	1093.76
714.87	1165.51
715.20	1129.01
715.54	1142.91
715.88	1200.99
716.22	1218.84
716.55	1253.87
716.89	1285.05
717.23	1294.66
717.57	1349.46
717.90	1390.36
718.24	1399.74
718.58	1457.14
718.91	1475.78
719.25	1520.52
719.59	1533.97
719.93	1593.74
720.26	1623.23
720.60	1661.09
720.94	1699.62
721.27	1759.84
721.61	1786.51
721.95	1814.98
722.28	1863.45
722.62	1913.85
722.96	1930.12
723.29	2014.30
723.63	2042.43
723.97	2089.21
724.30	2148.87
724.64	2188.53
724.97	2280.17
725.31	2317.68
725.65	2366.94
725.98	2438.47
726.32	2495.64
726.66	2558.80
726.99	2616.77
727.33	2669.08
727.66	2731.34
728.00	2797.89
728.33	2889.30
728.67	2971.45
729.01	3015.74
729.34	3078.68
729.68	3194.15
730.01	3219.58
730.35	3316.86
730.68	3423.75
731.02	3489.74
731.36	3581.60
731.69	3669.62
732.03	3759.34
732.36	3867.24
732.70	3892.89
733.03	4019.22
733.37	4092.43
733.70	4202.83
734.04	4294.69
734.37	4371.86
734.71	4490.05
735.04	4604.17
735.38	4722.14
735.71	4798.63
736.05	4932.41
736.38	5012.52
736.72	5108.57
737.05	5204.27
737.38	5342.46
737.72	5432.85
738.05	5579.51
738.39	5669.46
738.72	5824.93
739.06	5914.53
739.39	6016.34
739.73	6144.81
740.06	6285.94
740.39	6384.24
740.73	6538.13
741.06	6656.55
741.40	6750.22
741.73	6916.99
742.06	7012.58
742.40	7188.51
742.73	7291.11
743.07	7411.56
743.40	7613.47
743.73	7711.55
744.07	7816.97
744.40	7973.69
744.73	8142.16
745.07	8267.24
745.40	8466.11
745.73	8555.59
746.07	8719.21
746.40	8832.54
746.73	8942.48
747.07	9100.10
747.40	9231.96
747.73	9528.79
748.07	9537.49
748.40	9763.70
748.73	9873.86
749.07	10145.38
749.40	10202.10
749.73	10448.99
750.06	10539.95
750.40	10650.12
750.73	10860.96
751.06	11019.82
751.40	11220.50
751.73	11375.41
752.06	11527.49
752.39	11700.48
752.73	11909.63
753.06	12026.69
753.39	12181.60
753.72	12388.37
754.05	12504.64
754.39	12743.17
754.72	12844.18
755.05	13110.28
755.38	13223.16
755.72	13343.83
756.05	13508.46
756.38	13693.76
756.71	13849.81
757.04	14020.08
757.37	14144.15
757.71	14319.28
758.04	14425.84
758.37	14567.53
758.70	14661.20
759.03	14932.38
759.36	15094.07
759.70	15337.22
760.03	15431.01
760.36	15658.01
760.69	15849.07
761.02	15903.20
761.35	16024.21
761.68	16282.51
762.01	16265.34
762.35	16507.81
762.68	16587.70
763.01	16814.70
763.34	16957.97
763.67	16990.63
764.00	17069.04
764.33	17202.37
764.66	17217.17
764.99	17346.21
765.32	17371.18
765.65	17682.13
765.98	17835.69
766.31	17672.98
766.65	17714.34
766.98	17765.18
767.31	17854.78
767.64	18013.99
767.97	17866.20
768.30	17819.42
768.63	18010.15
768.96	17837.50
769.29	17896.93
769.62	17872.75
769.95	17907.66
770.28	17879.53
770.61	17782.36
770.94	17845.63
771.27	17893.99
771.60	17849.25
771.93	17748.12
772.26	17639.31
772.59	17642.59
772.92	17696.48
773.24	17623.83
773.57	17618.29
773.90	17410.62
774.23	17373.22
774.56	17254.35
774.89	17258.30
775.22	17027.57
775.55	17105.09
775.88	16790.18
776.21	16706.79
776.54	16583.86
776.87	16366.24
777.19	16252.34
777.52	16226.01
777.85	16034.72
778.18	15895.40
778.51	15725.12
778.84	15646.71
779.17	15524.45
779.50	15397.22
779.82	15184.80
780.15	14960.28
780.48	14755.77
780.81	14627.41
781.14	14509.90
781.47	14425.72
781.80	14135.67
782.12	14081.89
782.45	13859.07
782.78	13828.79
783.11	13584.61
783.44	13377.84
783.76	13337.73
784.09	12995.36
784.42	12908.02
784.75	12768.70
785.08	12543.17
785.40	12394.82
785.73	12224.65
786.06	11932.57
786.39	11849.07
786.71	11685.00
787.04	11587.04
787.37	11387.50
787.70	11142.31
788.02	11017.11
788.35	10764.69
788.68	10491.02
789.00	10406.62
789.33	10176.34
789.66	10043.24
789.99	9845.16
790.31	9656.70
790.64	9516.02
790.97	9322.58
791.29	9199.87
791.62	9000.67
791.95	8881.35
792.27	8674.91
792.60	8565.76
792.93	8412.32
793.25	8193.57
793.58	8118.09
793.91	7934.03
794.23	7734.94
794.56	7625.00
794.89	7481.95
795.21	7422.40
795.54	7223.65
795.87	7121.73
796.19	6920.27
796.52	6812.02
796.84	6672.71
797.17	6569.09
797.50	6427.97
797.82	6231.36
798.15	6157.24
798.47	6025.94
798.80	5882.33
799.12	5831.94
799.45	5662.68
799.78	5498.73
800.10	5390.71
800.43	5236.70
800.75	5107.32
801.08	4989.02
801.40	4904.28
801.73	4745.64
802.05	4637.84
802.38	4545.19
802.70	4442.26
803.03	4325.42
803.35	4271.64
803.68	4147.91
804.00	4003.85
804.33	3912.21
804.65	3834.81
804.98	3714.03
805.30	3591.66
805.63	3499.34
805.95	3401.94
806.28	3293.81
806.60	3173.48
806.93	3131.44
807.25	3040.60
807.58	2949.98
807.90	2857.10
808.22	2747.72
808.55	2711.91
808.87	2612.47
809.20	2545.58
809.52	2488.75
809.85	2380.39
810.17	2327.06
810.49	2232.26
810.82	2186.84
811.14	2144.92
811.47	2054.52
811.79	1978.71
812.11	1902.21
812.44	1839.05
812.76	1818.03
813.08	1759.61
813.41	1683.91
813.73	1635.44
814.05	1596.00
814.38	1544.59
814.70	1477.81
815.02	1424.93
815.35	1400.87
815.67	1329.68
815.99	1310.59
816.32	1269.57
816.64	1220.08
816.96	1173.19
817.29	1149.12
817.61	1134.55
817.93	1085.62
818.26	1050.37
818.58	1012.97
818.90	987.77
819.22	954.55
819.55	919.41
819.87	884.72
820.19	857.15
820.51	823.82
820.84	779.19
821.16	778.85
821.48	733.43
821.80	731.51
822.13	694.90
822.45	676.82
822.77	664.28
