SpectraSuite Data File
++++++++++++++++++++++++++++++++++++
Date: Thu Jun 15 11:43:08 BST 2017
User: Eng0000912
Dark Spectrum Present: Yes
Reference Spectrum Present: No
Number of Sampled Component Spectra: 1
Spectrometers: USB2+H04851
Integration Time (usec): 100000 (USB2+H04851)
Spectra Averaged: 20 (USB2+H04851)
Boxcar Smoothing: 0 (USB2+H04851)
Correct for Electrical Dark: No (USB2+H04851)
Strobe/Lamp Enabled: No (USB2+H04851)
Correct for Detector Non-linearity: No (USB2+H04851)
Correct for Stray Light: No (USB2+H04851)
Number of Pixels in Processed Spectrum: 2048
>>>>>Begin Processed Spectral Data<<<<<
340.07	-20.11
340.45	-20.11
340.82	-20.11
341.20	-16.72
341.58	-28.36
341.96	-15.71
342.34	-44.74
342.72	-31.75
343.10	-39.77
343.48	-28.70
343.85	-35.48
344.23	-21.47
344.61	-17.97
344.99	-31.07
345.37	-17.74
345.75	-20.79
346.13	-36.50
346.50	-20.68
346.88	-13.90
347.26	-21.81
347.64	-35.25
348.02	-27.91
348.40	-29.04
348.77	-21.92
349.15	-30.51
349.53	-27.80
349.91	-29.94
350.29	-7.12
350.66	-18.30
351.04	-29.60
351.42	-20.00
351.80	-24.75
352.18	-30.51
352.55	-6.89
352.93	-11.75
353.31	-12.66
353.69	-16.50
354.07	-16.61
354.44	-8.36
354.82	-35.71
355.20	-18.64
355.58	-20.45
355.95	-28.81
356.33	-30.85
356.71	-9.38
357.09	-48.59
357.46	-46.44
357.84	-21.81
358.22	-11.53
358.60	-34.35
358.97	-25.76
359.35	-11.30
359.73	0.56
360.10	-22.15
360.48	-20.34
360.86	-34.35
361.24	-40.34
361.61	-13.33
361.99	-46.10
362.37	-24.75
362.74	-37.17
363.12	-24.97
363.50	-37.85
363.87	-10.51
364.25	-19.89
364.63	-36.27
365.01	-37.51
365.38	-42.48
365.76	-32.65
366.14	-27.00
366.51	-33.56
366.89	-10.73
367.27	-36.61
367.64	4.63
368.02	-36.16
368.39	-30.28
368.77	-31.30
369.15	-27.46
369.52	-1.58
369.90	-20.23
370.28	-28.02
370.65	-16.27
371.03	-17.85
371.40	-27.80
371.78	-28.25
372.16	-31.19
372.53	-15.93
372.91	-14.91
373.28	-9.38
373.66	-23.28
374.04	-24.18
374.41	-22.71
374.79	-29.04
375.16	-23.28
375.54	-28.81
375.92	-29.04
376.29	-36.72
376.67	-26.78
377.04	-33.11
377.42	-32.99
377.79	-26.33
378.17	-33.11
378.55	-8.47
378.92	-21.24
379.30	-23.05
379.67	-45.65
380.05	-11.07
380.42	-17.97
380.80	-30.73
381.17	-22.15
381.55	-16.50
381.92	-20.79
382.30	-39.10
382.67	-24.18
383.05	-21.24
383.42	-34.69
383.80	-46.67
384.17	1.02
384.55	-26.89
384.92	-29.26
385.30	-25.08
385.67	-30.73
386.05	-10.06
386.42	-15.93
386.80	-20.23
387.17	-28.02
387.55	-30.62
387.92	-24.29
388.30	-18.53
388.67	-18.64
389.04	-40.22
389.42	-39.32
389.79	-20.79
390.17	-29.26
390.54	-26.55
390.92	-21.24
391.29	-29.94
391.67	-24.29
392.04	-25.65
392.41	-13.33
392.79	-25.76
393.16	-31.75
393.54	-36.50
393.91	-33.11
394.28	-9.83
394.66	-32.88
395.03	-31.41
395.41	-33.22
395.78	1.47
396.15	-21.36
396.53	-37.40
396.90	-38.42
397.28	-32.54
397.65	-13.22
398.02	-17.06
398.40	-8.93
398.77	-17.85
399.14	-20.90
399.52	-34.58
399.89	-33.78
400.26	-33.90
400.64	-18.64
401.01	-19.66
401.38	-5.42
401.76	-22.82
402.13	-6.33
402.50	-20.34
402.88	-11.86
403.25	-35.82
403.62	-36.38
404.00	-8.59
404.37	-23.05
404.74	-31.41
405.12	-54.01
405.49	-16.84
405.86	-9.27
406.23	-20.79
406.61	-7.46
406.98	-18.64
407.35	-32.65
407.73	-27.34
408.10	0.56
408.47	-12.77
408.84	-12.54
409.22	-32.65
409.59	-25.54
409.96	-32.20
410.33	-13.90
410.71	-20.90
411.08	-23.84
411.45	-17.29
411.82	-12.54
412.20	-15.37
412.57	-9.72
412.94	-32.32
413.31	-30.17
413.68	-25.76
414.06	-26.55
414.43	-21.13
414.80	-33.90
415.17	-18.64
415.55	-20.56
415.92	-25.20
416.29	-13.11
416.66	-30.85
417.03	-18.87
417.40	-12.77
417.78	-10.28
418.15	-14.01
418.52	-6.67
418.89	-35.48
419.26	-33.56
419.63	-29.49
420.01	-30.17
420.38	-33.33
420.75	-22.94
421.12	-26.67
421.49	-27.57
421.86	-7.68
422.23	-18.64
422.61	-25.20
422.98	-32.99
423.35	-34.24
423.72	-24.52
424.09	-40.11
424.46	-9.27
424.83	-26.10
425.20	-13.90
425.58	-23.62
425.95	-18.30
426.32	-32.20
426.69	-23.05
427.06	-13.90
427.43	-16.38
427.80	-15.37
428.17	-26.33
428.54	-11.64
428.91	-17.06
429.28	-9.27
429.65	-40.34
430.02	-5.42
430.40	-28.36
430.77	-22.26
431.14	-31.64
431.51	-22.71
431.88	-28.70
432.25	-13.45
432.62	-28.59
432.99	-16.61
433.36	-17.40
433.73	-27.34
434.10	-25.20
434.47	-16.72
434.84	-17.29
435.21	-17.40
435.58	-7.34
435.95	-28.02
436.32	-17.97
436.69	-51.19
437.06	-6.55
437.43	-31.07
437.80	-23.62
438.17	-22.49
438.54	-26.78
438.91	-8.70
439.28	-9.04
439.65	-43.05
440.02	-23.50
440.39	-29.60
440.76	-16.95
441.13	-21.69
441.49	-21.13
441.86	-23.73
442.23	-18.53
442.60	-29.72
442.97	-24.29
443.34	-25.42
443.71	-28.81
444.08	-48.59
444.45	-10.62
444.82	-37.40
445.19	-5.99
445.56	-42.71
445.93	-27.12
446.29	-32.09
446.66	-30.62
447.03	-38.19
447.40	-19.55
447.77	-27.57
448.14	-32.43
448.51	-36.38
448.88	-8.14
449.24	-17.74
449.61	-39.10
449.98	-8.93
450.35	-20.23
450.72	-16.95
451.09	-5.99
451.46	-26.44
451.82	-6.55
452.19	-23.05
452.56	-26.89
452.93	-8.81
453.30	-31.52
453.67	-31.98
454.03	-42.26
454.40	-30.39
454.77	-13.56
455.14	-31.64
455.51	-31.52
455.87	-23.05
456.24	-14.91
456.61	-21.02
456.98	-20.90
457.35	-21.47
457.71	-28.36
458.08	-38.19
458.45	-4.41
458.82	-7.12
459.19	-28.13
459.55	-18.19
459.92	-21.24
460.29	-17.51
460.66	-24.63
461.02	-19.21
461.39	-19.10
461.76	-24.07
462.13	-34.35
462.49	-13.45
462.86	-14.24
463.23	-26.33
463.59	-18.76
463.96	-32.65
464.33	-15.03
464.70	-12.88
465.06	-35.59
465.43	-20.00
465.80	-23.05
466.16	-26.89
466.53	-30.39
466.90	-15.03
467.26	-20.34
467.63	-15.37
468.00	-35.03
468.36	-34.80
468.73	-15.82
469.10	-30.17
469.46	-6.44
469.83	-14.35
470.20	-24.52
470.56	-21.13
470.93	-24.75
471.30	-29.83
471.66	-29.83
472.03	-16.50
472.40	-22.71
472.76	-10.73
473.13	-28.93
473.50	-37.17
473.86	-6.10
474.23	-26.10
474.59	-30.73
474.96	-47.34
475.33	-12.66
475.69	-28.93
476.06	-35.25
476.42	-29.04
476.79	-12.54
477.16	-9.15
477.52	-30.17
477.89	-27.46
478.25	-9.27
478.62	-27.57
478.98	-17.97
479.35	-14.24
479.72	-25.31
480.08	-27.57
480.45	-26.78
480.81	-27.34
481.18	-37.06
481.54	-33.90
481.91	-22.60
482.27	-6.89
482.64	-34.91
483.00	-29.15
483.37	-31.64
483.73	-28.36
484.10	-35.82
484.46	-26.55
484.83	-9.38
485.19	-24.75
485.56	-19.10
485.92	-19.43
486.29	-32.88
486.65	-26.67
487.02	-46.44
487.38	-4.63
487.75	-22.49
488.11	-16.72
488.48	-28.93
488.84	-38.64
489.21	-20.79
489.57	-48.02
489.94	-32.32
490.30	-14.46
490.66	-22.94
491.03	-18.76
491.39	-21.13
491.76	-20.56
492.12	-10.40
492.49	-22.94
492.85	-30.39
493.21	-12.54
493.58	-18.30
493.94	10.51
494.31	-23.73
494.67	-30.85
495.03	-20.56
495.40	-33.11
495.76	-45.20
496.13	-13.11
496.49	-21.58
496.85	-13.11
497.22	-13.45
497.58	-30.96
497.94	-16.72
498.31	-6.33
498.67	-33.67
499.04	-24.41
499.40	-26.21
499.76	-17.29
500.13	-20.68
500.49	-11.86
500.85	-39.10
501.22	-15.48
501.58	-32.09
501.94	-11.41
502.31	-15.48
502.67	-11.07
503.03	-31.75
503.40	-34.69
503.76	-32.88
504.12	-5.65
504.48	-16.95
504.85	-19.32
505.21	-34.46
505.57	-40.90
505.94	-32.88
506.30	-11.98
506.66	-18.08
507.02	-22.03
507.39	-12.77
507.75	-37.51
508.11	-23.95
508.47	-17.85
508.84	-20.68
509.20	-10.73
509.56	-14.35
509.92	-27.57
510.29	-25.88
510.65	-35.37
511.01	-28.47
511.37	-33.22
511.74	-13.67
512.10	-14.91
512.46	-7.23
512.82	-15.14
513.18	-16.27
513.55	-17.51
513.91	-17.40
514.27	-22.60
514.63	-27.00
514.99	-24.07
515.35	-19.66
515.72	-31.19
516.08	-33.45
516.44	-20.56
516.80	-23.05
517.16	-22.49
517.52	-28.13
517.89	-14.46
518.25	-36.16
518.61	-34.69
518.97	-27.57
519.33	-16.27
519.69	0.79
520.05	-19.43
520.42	-28.47
520.78	-34.01
521.14	-28.02
521.50	-26.33
521.86	-30.51
522.22	-11.64
522.58	-15.82
522.94	-35.25
523.30	-5.99
523.67	-7.23
524.03	-32.32
524.39	-44.86
524.75	-31.19
525.11	-27.23
525.47	-35.03
525.83	-13.78
526.19	-16.72
526.55	6.78
526.91	-14.24
527.27	-14.58
527.63	-14.35
527.99	-16.50
528.35	-8.70
528.71	-5.20
529.07	-18.19
529.43	-4.86
529.79	-15.82
530.15	-11.53
530.51	-22.03
530.87	-24.97
531.23	-5.08
531.59	-2.37
531.95	-30.96
532.31	-41.92
532.67	-58.19
533.03	-37.06
533.39	-14.69
533.75	-20.90
534.11	-34.80
534.47	-14.91
534.83	-25.88
535.19	-16.16
535.55	-29.04
535.91	-16.27
536.27	-32.09
536.63	-37.29
536.99	-23.16
537.35	-22.71
537.71	-13.67
538.07	-34.80
538.43	-16.72
538.79	-44.97
539.15	-18.19
539.51	-30.85
539.86	-2.49
540.22	-24.29
540.58	-33.45
540.94	-23.95
541.30	-15.82
541.66	-20.90
542.02	-24.63
542.38	-42.26
542.74	-24.18
543.09	-27.91
543.45	-15.25
543.81	-16.72
544.17	-5.54
544.53	-35.37
544.89	-25.20
545.25	-21.47
545.60	-21.02
545.96	-40.90
546.32	-12.88
546.68	-17.06
547.04	-26.67
547.40	-28.02
547.75	-25.08
548.11	-31.86
548.47	-15.25
548.83	-21.24
549.19	-19.10
549.55	-8.14
549.90	-3.50
550.26	-18.42
550.62	-21.69
550.98	-34.69
551.34	-35.14
551.69	-21.81
552.05	-26.67
552.41	-41.58
552.77	-35.25
553.12	-31.52
553.48	-9.49
553.84	-4.86
554.20	-15.71
554.55	-25.76
554.91	-15.37
555.27	-44.29
555.63	-0.11
555.98	-11.41
556.34	-29.49
556.70	-20.11
557.05	-16.72
557.41	-26.44
557.77	-33.22
558.13	-24.18
558.48	-35.37
558.84	-17.06
559.20	-14.80
559.55	-34.24
559.91	-27.80
560.27	-18.08
560.62	-12.99
560.98	-20.00
561.34	-6.55
561.69	-8.59
562.05	-28.25
562.41	-26.33
562.76	-30.28
563.12	-10.40
563.48	4.52
563.83	-13.22
564.19	-33.78
564.55	-22.82
564.90	-17.97
565.26	-23.84
565.62	-22.94
565.97	-24.52
566.33	-20.23
566.68	-27.91
567.04	-19.10
567.40	-16.72
567.75	-40.90
568.11	-33.78
568.46	-6.21
568.82	-19.55
569.18	-19.32
569.53	-8.70
569.89	-17.97
570.24	-13.33
570.60	-3.84
570.95	-8.02
571.31	1.02
571.66	9.15
572.02	13.33
572.38	37.40
572.73	29.94
573.09	16.72
573.44	57.51
573.80	32.20
574.15	19.66
574.51	19.77
574.86	28.47
575.22	34.35
575.57	25.08
575.93	33.45
576.28	33.78
576.64	25.88
576.99	40.56
577.35	42.48
577.70	26.44
578.06	25.20
578.41	29.94
578.77	14.69
579.12	7.91
579.48	-1.02
579.83	10.73
580.18	13.45
580.54	2.71
580.89	5.99
581.25	-3.62
581.60	6.10
581.96	-15.48
582.31	-20.00
582.67	-12.99
583.02	-9.49
583.37	-18.19
583.73	-19.77
584.08	-23.50
584.44	-10.51
584.79	-16.27
585.14	-10.17
585.50	-27.12
585.85	-28.36
586.21	-29.26
586.56	-18.87
586.91	-7.23
587.27	-31.30
587.62	-28.13
587.97	-41.24
588.33	-17.74
588.68	-0.34
589.03	-16.04
589.39	-14.24
589.74	-5.31
590.09	-23.95
590.45	-13.33
590.80	-27.00
591.15	-18.98
591.51	-27.80
591.86	-3.39
592.21	-9.38
592.57	-23.50
592.92	-17.06
593.27	-10.40
593.63	-34.58
593.98	-23.28
594.33	-46.89
594.69	-17.06
595.04	-9.72
595.39	-8.59
595.74	-18.64
596.10	-7.57
596.45	-29.26
596.80	-19.32
597.15	-24.97
597.51	4.41
597.86	-12.54
598.21	-19.10
598.56	0.56
598.92	-33.45
599.27	-14.01
599.62	-6.33
599.97	-18.30
600.32	8.70
600.68	-0.68
601.03	0.11
601.38	-29.83
601.73	0.23
602.09	-22.15
602.44	-22.60
602.79	-35.59
603.14	-6.21
603.49	-12.99
603.84	-17.40
604.20	-20.00
604.55	-17.40
604.90	-8.25
605.25	-14.69
605.60	-27.80
605.95	-18.98
606.31	-17.17
606.66	-7.57
607.01	-0.79
607.36	-25.08
607.71	-21.13
608.06	-7.80
608.41	-30.17
608.76	-6.67
609.12	-24.63
609.47	-19.10
609.82	-17.74
610.17	-9.60
610.52	-12.77
610.87	1.47
611.22	-14.01
611.57	-15.03
611.92	-15.82
612.27	-14.01
612.62	-14.80
612.98	-26.44
613.33	-28.02
613.68	-11.98
614.03	-16.04
614.38	-20.23
614.73	-18.87
615.08	-20.79
615.43	-28.02
615.78	-17.40
616.13	-22.82
616.48	-25.31
616.83	-8.93
617.18	-29.83
617.53	-7.68
617.88	-37.51
618.23	-18.08
618.58	-8.25
618.93	-14.46
619.28	-9.60
619.63	-21.81
619.98	-30.85
620.33	-25.88
620.68	-32.09
621.03	-18.64
621.38	-9.38
621.73	-23.39
622.08	-14.58
622.43	-11.75
622.78	-20.90
623.13	-29.72
623.48	-17.74
623.82	-31.75
624.17	-25.08
624.52	-35.71
624.87	-18.98
625.22	-40.79
625.57	-15.14
625.92	-21.36
626.27	-35.71
626.62	-8.36
626.97	-28.47
627.32	-7.34
627.66	-28.02
628.01	-10.85
628.36	-35.93
628.71	-38.19
629.06	-22.82
629.41	-13.78
629.76	-33.45
630.11	-29.26
630.45	-30.28
630.80	-17.06
631.15	-10.17
631.50	-18.42
631.85	-25.99
632.20	-23.16
632.54	-28.93
632.89	-15.71
633.24	-19.77
633.59	-23.95
633.94	-11.07
634.29	-17.74
634.63	-7.91
634.98	-11.07
635.33	-41.92
635.68	-4.63
636.02	-27.57
636.37	-29.72
636.72	-0.90
637.07	-18.64
637.42	-7.23
637.76	-23.84
638.11	-22.60
638.46	-31.86
638.81	-3.28
639.15	-17.97
639.50	-18.30
639.85	-11.75
640.20	-13.56
640.54	-28.81
640.89	-9.49
641.24	5.76
641.58	-9.49
641.93	-11.75
642.28	-8.81
642.63	-18.42
642.97	-10.28
643.32	-4.41
643.67	-11.64
644.01	-33.78
644.36	-19.32
644.71	-21.47
645.05	-3.16
645.40	-7.46
645.75	-21.13
646.09	-27.91
646.44	-22.03
646.79	-33.22
647.13	-26.33
647.48	-0.00
647.83	-5.99
648.17	-7.46
648.52	-4.29
648.86	-23.50
649.21	-27.91
649.56	-7.23
649.90	-14.12
650.25	-3.84
650.60	0.45
650.94	-13.33
651.29	-16.95
651.63	10.40
651.98	-1.47
652.33	-21.13
652.67	-22.71
653.02	-18.08
653.36	-15.82
653.71	-1.24
654.05	-29.26
654.40	-14.91
654.74	-10.96
655.09	-6.21
655.44	-14.58
655.78	-18.53
656.13	-9.38
656.47	-5.99
656.82	-8.70
657.16	-7.68
657.51	-8.59
657.85	-15.93
658.20	-8.25
658.54	-0.11
658.89	-8.47
659.23	8.47
659.58	12.54
659.92	-12.99
660.27	-21.24
660.61	-17.17
660.96	-4.18
661.30	-0.56
661.65	-11.98
661.99	-13.45
662.33	1.69
662.68	6.44
663.02	-15.48
663.37	11.64
663.71	12.66
664.06	-1.24
664.40	18.76
664.75	-1.92
665.09	-10.17
665.43	13.33
665.78	6.78
666.12	19.55
666.47	12.32
666.81	-4.41
667.15	9.27
667.50	7.57
667.84	20.00
668.19	9.15
668.53	25.42
668.87	7.91
669.22	15.82
669.56	24.52
669.90	26.55
670.25	30.73
670.59	29.72
670.93	24.75
671.28	37.29
671.62	37.06
671.96	26.44
672.31	43.61
672.65	32.09
672.99	32.88
673.34	37.63
673.68	27.91
674.02	38.19
674.37	47.34
674.71	40.22
675.05	29.60
675.40	36.50
675.74	54.35
676.08	53.67
676.42	80.68
676.77	49.72
677.11	71.75
677.45	68.36
677.79	52.99
678.14	59.77
678.48	78.87
678.82	78.53
679.16	57.29
679.51	85.99
679.85	65.65
680.19	74.35
680.53	82.60
680.88	92.31
681.22	90.96
681.56	101.35
681.90	85.87
682.24	90.17
682.59	93.56
682.93	109.49
683.27	110.84
683.61	107.34
683.95	95.03
684.29	98.98
684.64	107.79
684.98	121.47
685.32	113.56
685.66	138.98
686.00	151.07
686.34	112.54
686.69	134.12
687.03	138.30
687.37	149.49
687.71	175.93
688.05	163.61
688.39	159.20
688.73	175.81
689.07	176.72
689.41	174.12
689.76	185.19
690.10	180.56
690.44	181.01
690.78	188.36
691.12	191.29
691.46	189.15
691.80	225.87
692.14	213.67
692.48	239.09
692.82	215.25
693.16	237.06
693.50	250.84
693.84	255.47
694.18	271.07
694.53	267.90
694.87	287.45
695.21	283.50
695.55	291.29
695.89	285.53
696.23	314.00
696.57	310.16
696.91	334.23
697.25	318.64
697.59	370.05
697.93	352.08
698.27	374.45
698.61	359.20
698.95	381.12
699.29	392.31
699.63	399.20
699.97	400.89
700.30	403.15
700.64	441.80
700.98	447.67
701.32	448.46
701.66	477.28
702.00	476.94
702.34	483.49
702.68	487.33
703.02	534.22
703.36	546.54
703.70	554.67
704.04	582.36
704.38	602.24
704.72	599.76
705.05	622.92
705.39	632.07
705.73	652.75
706.07	671.17
706.41	666.42
706.75	692.41
707.09	723.37
707.43	734.78
707.77	754.67
708.10	765.74
708.44	790.71
708.78	802.69
709.12	837.15
709.46	838.06
709.80	835.57
710.13	900.88
710.47	927.09
710.81	921.11
711.15	948.68
711.49	983.48
711.82	1000.65
712.16	1037.71
712.50	1042.23
712.84	1067.88
713.18	1075.11
713.51	1108.78
713.85	1139.18
714.19	1151.61
714.53	1188.90
714.87	1248.33
715.20	1259.85
715.54	1259.29
715.88	1313.52
716.22	1346.41
716.55	1376.24
716.89	1400.87
717.23	1420.53
717.57	1431.71
717.90	1501.99
718.24	1539.28
718.58	1544.93
718.91	1614.53
719.25	1653.85
719.59	1664.93
719.93	1718.82
720.26	1764.13
720.60	1811.82
720.94	1867.86
721.27	1900.63
721.61	1947.63
721.95	1985.03
722.28	2032.71
722.62	2084.69
722.96	2139.83
723.29	2191.47
723.63	2235.08
723.97	2291.24
724.30	2318.81
724.64	2394.06
724.97	2500.61
725.31	2527.50
725.65	2584.11
725.98	2669.53
726.32	2709.76
726.66	2779.25
726.99	2874.05
727.33	2929.19
727.66	2994.16
728.00	3082.18
728.33	3171.67
728.67	3211.44
729.01	3303.30
729.34	3362.96
729.68	3439.01
730.01	3499.79
730.35	3630.19
730.68	3735.72
731.02	3782.95
731.36	3886.68
731.69	3985.77
732.03	4116.61
732.36	4180.00
732.70	4286.44
733.03	4384.18
733.37	4464.97
733.70	4598.30
734.04	4675.47
734.37	4779.65
734.71	4911.74
735.04	5040.09
735.38	5114.89
735.71	5263.25
736.05	5377.49
736.38	5483.47
736.72	5587.08
737.05	5703.69
737.38	5818.83
737.72	5889.34
738.05	6098.82
738.39	6171.48
738.72	6355.99
739.06	6426.38
739.39	6590.90
739.73	6666.15
740.06	6837.45
740.39	6979.03
740.73	7163.31
741.06	7221.05
741.40	7375.51
741.73	7528.73
742.06	7669.40
742.40	7845.44
742.73	7959.79
743.07	8103.74
743.40	8266.45
743.73	8402.38
744.07	8562.37
744.40	8711.64
744.73	8892.08
745.07	9044.51
745.40	9213.88
745.73	9309.13
746.07	9509.58
746.40	9657.94
746.73	9777.03
747.07	9917.71
747.40	10145.27
747.73	10339.28
748.07	10460.63
748.40	10656.56
748.73	10798.25
749.07	11069.99
749.40	11194.06
749.73	11392.92
750.06	11462.86
750.40	11670.77
750.73	11880.93
751.06	12082.28
751.40	12236.51
751.73	12445.21
752.06	12622.83
752.39	12769.27
752.73	13005.53
753.06	13180.22
753.39	13405.98
753.72	13500.21
754.05	13684.16
754.39	13875.34
754.72	14060.42
755.05	14442.22
755.38	14423.58
755.72	14609.79
756.05	14766.96
756.38	15054.97
756.71	15183.22
757.04	15389.31
757.37	15489.76
757.71	15734.95
758.04	15829.19
758.37	16059.80
758.70	16140.71
759.03	16386.57
759.36	16572.78
759.70	16752.55
760.03	16921.59
760.36	17194.35
760.69	17374.68
761.02	17468.13
761.35	17526.43
761.68	17892.30
762.01	17946.08
762.35	18104.72
762.68	18244.38
763.01	18442.23
763.34	18628.89
763.67	18715.89
764.00	18792.27
764.33	18894.76
764.66	18896.90
764.99	19054.87
765.32	19187.41
765.65	19394.63
765.98	19546.49
766.31	19452.93
766.65	19464.23
766.98	19545.59
767.31	19587.06
767.64	19764.57
767.97	19686.26
768.30	19629.99
768.63	19817.33
768.96	19517.00
769.29	19613.61
769.62	19596.66
769.95	19648.18
770.28	19713.27
770.61	19548.98
770.94	19635.30
771.27	19669.88
771.60	19605.02
771.93	19531.46
772.26	19439.38
772.59	19337.34
772.92	19444.46
773.24	19358.59
773.57	19368.53
773.90	19192.15
774.23	19103.11
774.56	19016.11
774.89	19001.65
775.22	18730.35
775.55	18765.50
775.88	18538.61
776.21	18417.37
776.54	18191.39
776.87	18019.41
777.19	17917.49
777.52	17885.07
777.85	17509.37
778.18	17411.29
778.51	17256.72
778.84	17188.81
779.17	17058.42
779.50	16885.32
779.82	16672.10
780.15	16433.24
780.48	16267.71
780.81	16029.07
781.14	15979.47
781.47	15832.92
781.80	15476.54
782.12	15464.68
782.45	15192.37
782.78	15124.57
783.11	14892.04
783.44	14634.19
783.76	14589.22
784.09	14214.09
784.42	14118.05
784.75	13959.63
785.08	13787.66
785.40	13526.76
785.73	13370.38
786.06	13031.18
786.39	13022.48
786.71	12820.23
787.04	12675.94
787.37	12399.79
787.70	12145.56
788.02	11998.22
788.35	11730.88
788.68	11494.50
789.00	11394.05
789.33	11105.24
789.66	10953.50
789.99	10705.93
790.31	10527.86
790.64	10370.46
790.97	10156.46
791.29	10042.11
791.62	9854.09
791.95	9645.17
792.27	9460.88
792.60	9277.84
792.93	9171.28
793.25	8941.35
793.58	8888.01
793.91	8654.91
794.23	8411.08
794.56	8304.30
794.89	8105.89
795.21	8056.74
795.54	7850.98
795.87	7731.32
796.19	7546.24
796.52	7380.82
796.84	7252.24
797.17	7090.66
797.50	6963.32
797.82	6795.64
798.15	6665.59
798.47	6493.16
798.80	6370.57
799.12	6312.83
799.45	6137.92
799.78	5971.03
800.10	5859.85
800.43	5708.78
800.75	5567.88
801.08	5455.45
801.40	5298.96
801.73	5171.84
802.05	5035.23
802.38	4909.93
802.70	4825.64
803.03	4677.73
803.35	4595.81
803.68	4493.22
804.00	4355.14
804.33	4272.09
804.65	4156.73
804.98	4034.36
805.30	3884.42
805.63	3783.97
805.95	3690.19
806.28	3575.50
806.60	3409.74
806.93	3403.53
807.25	3293.81
807.58	3193.93
807.90	3076.64
808.22	2990.66
808.55	2910.54
808.87	2861.85
809.20	2759.36
809.52	2707.73
809.85	2607.16
810.17	2501.18
810.49	2406.38
810.82	2357.11
811.14	2297.11
811.47	2219.94
811.79	2157.80
812.11	2054.07
812.44	1999.83
812.76	1950.34
813.08	1848.99
813.41	1830.23
813.73	1778.82
814.05	1718.37
814.38	1660.30
814.70	1599.28
815.02	1562.78
815.35	1513.86
815.67	1458.15
815.99	1414.99
816.32	1362.68
816.64	1316.35
816.96	1281.66
817.29	1247.65
817.61	1215.34
817.93	1188.90
818.26	1143.02
818.58	1085.73
818.90	1058.73
819.22	1045.40
819.55	988.90
819.87	957.38
820.19	929.69
820.51	912.52
820.84	862.46
821.16	845.74
821.48	800.66
821.80	807.89
822.13	759.42
822.45	757.83
